#Rx
# X(m), Y(m), Z(m), Distance(m), Power (dBm) Phase (deg)
1 5.1281 4.11579 1 6.23509 -50.969 62.5541
2 5.3281 4.11579 1 6.3849 -52.378 -25.8641
3 5.5281 4.11579 1 6.5374 -51.3321 -89.0393
4 5.7281 4.11579 1 6.69241 -54.8454 -162.38
5 5.9281 4.11579 1 6.84974 -65.4634 90.7957
6 6.1281 4.11579 1 7.00925 -53.1729 46.4389
7 6.3281 4.11579 1 7.1708 -54.6719 -81.1215
8 6.5281 4.11579 1 7.33423 -53.3985 137.169
9 6.7281 4.11579 1 7.49944 -60.6844 -27.92
10 6.9281 4.11579 1 7.66631 -59.632 177.486
11 7.1281 4.11579 1 7.83473 -57.118 -3.72617
12 7.3281 4.11579 1 8.0046 -55.8201 -122.909
13 5.1281 4.31579 1 6.11616 -50.2657 13.3611
14 5.3281 4.31579 1 6.26882 -57.8617 -30.4379
15 5.5281 4.31579 1 6.42407 -61.0916 -64.5186
16 5.7281 4.31579 1 6.58175 -55.7611 177.964
17 5.9281 4.31579 1 6.74167 -57.9745 122.96
18 6.1281 4.31579 1 6.90367 -56.1777 -50.9172
19 6.3281 4.31579 1 7.06763 -58.473 152.21
20 6.5281 4.31579 1 7.2334 -55.9759 -7.73479
21 6.7281 4.31579 1 7.40086 -59.0406 -149.085
22 6.9281 4.31579 1 7.5699 -55.6832 68.768
23 7.1281 4.31579 1 7.74042 -58.4786 -40.936
24 7.3281 4.31579 1 7.91231 -58.3161 133.712
25 5.1281 4.51579 1 6.00154 -56.0251 -9.83237
26 5.3281 4.51579 1 6.15704 -55.4947 -65.742
27 5.5281 4.51579 1 6.31505 -56.6317 -109.344
28 5.7281 4.51579 1 6.47537 -58.1696 97.283
29 5.9281 4.51579 1 6.63786 -60.182 24.9972
30 6.1281 4.51579 1 6.80234 -53.7922 -167.958
31 6.3281 4.51579 1 6.96868 -53.0887 63.8362
32 6.5281 4.51579 1 7.13674 -53.0255 -91.3213
33 6.7281 4.51579 1 7.30642 -57.4643 138.897
34 6.9281 4.51579 1 7.4776 -56.4143 -67.0932
35 7.1281 4.51579 1 7.65017 -62.1865 172.417
36 7.3281 4.51579 1 7.82405 -59.1184 14.4446
37 5.1281 4.71579 1 5.89148 -60.1121 30.6698
38 5.3281 4.71579 1 6.04981 -53.1307 -99.7802
39 5.5281 4.71579 1 6.21055 -50.0443 161.396
40 5.7281 4.71579 1 6.3735 -56.3362 -3.52025
41 5.9281 4.71579 1 6.53852 -51.6951 -107.37
42 6.1281 4.71579 1 6.70544 -52.5365 93.4207
43 6.3281 4.71579 1 6.87412 -57.0296 -64.2665
44 6.5281 4.71579 1 7.04444 -53.9217 100.182
45 6.7281 4.71579 1 7.21629 -56.4608 -52.7982
46 6.9281 4.71579 1 7.38956 -55.0016 -177.211
47 7.1281 4.71579 1 7.56414 -53.4458 71.6348
48 7.3281 4.71579 1 7.73995 -54.4784 -70.3987
49 5.1281 4.91579 1 5.78624 -53.2746 -72.3287
50 5.3281 4.91579 1 5.94738 -54.1869 175.618
51 5.5281 4.91579 1 6.11081 -51.9565 37.6718
52 5.7281 4.91579 1 6.27635 -58.2817 -132.193
53 5.9281 4.91579 1 6.44386 -58.0198 93.5447
54 6.1281 4.91579 1 6.61316 -56.6294 -96.1725
55 6.3281 4.91579 1 6.78414 -55.0816 135.396
56 6.5281 4.91579 1 6.95667 -50.3736 1.7721
57 6.7281 4.91579 1 7.13063 -52.7448 -104.631
58 6.9281 4.91579 1 7.30593 -52.5141 117.382
59 7.1281 4.91579 1 7.48246 -53.5032 -24.3048
60 7.3281 4.91579 1 7.66015 -54.6402 165.293
61 5.1281 5.11579 1 5.6861 -53.1551 -162.226
62 5.3281 5.11579 1 5.84999 -55.207 55.2006
63 5.5281 5.11579 1 6.01606 -56.9532 -88.7747
64 5.7281 5.11579 1 6.18415 -59.538 102.612
65 5.9281 5.11579 1 6.35408 -57.1186 -9.32681
66 6.1281 5.11579 1 6.52572 -55.4338 -170.008
67 6.3281 5.11579 1 6.69893 -50.86 66.5765
68 6.5281 5.11579 1 6.8736 -51.1505 -73.3342
69 6.7281 5.11579 1 7.04961 -55.3161 132.522
70 6.9281 5.11579 1 7.22687 -51.6877 -37.5525
71 7.1281 5.11579 1 7.40529 -52.3736 174.807
72 7.3281 5.11579 1 7.58479 -48.3112 28.1252
73 5.1281 5.31579 1 5.59131 -56.7643 31.312
74 5.3281 5.31579 1 5.7579 -55.9142 -98.4381
75 5.5281 5.31579 1 5.92656 -55.2756 141.484
76 5.7281 5.31579 1 6.09711 -52.5762 7.76636
77 5.9281 5.31579 1 6.2694 -53.0898 -141.505
78 6.1281 5.31579 1 6.4433 -50.6439 60.9605
79 6.3281 5.31579 1 6.61867 -52.0976 -78.8917
80 6.5281 5.31579 1 6.7954 -50.9398 130.769
81 6.7281 5.31579 1 6.97338 -49.8947 -26.9396
82 6.9281 5.31579 1 7.15253 -48.6648 -170.166
83 7.1281 5.31579 1 7.33276 -54.5365 54.088
84 7.3281 5.31579 1 7.51399 -53.11 -117.85
85 5.1281 5.51579 1 5.50217 -57.2325 -132.166
86 5.3281 5.51579 1 5.67138 -52.0011 132.23
87 5.5281 5.51579 1 5.84253 -54.3345 19.7369
88 5.7281 5.51579 1 6.01547 -51.6314 -131.652
89 5.9281 5.51579 1 6.19003 -54.1798 81.1009
90 6.1281 5.51579 1 6.3661 -49.4883 -81.9377
91 6.3281 5.51579 1 6.54353 -53.173 130.336
92 6.5281 5.51579 1 6.72224 -51.2272 -14.3557
93 6.7281 5.51579 1 6.90211 -56.3176 -155.84
94 6.9281 5.51579 1 7.08307 -53.0867 54.1026
95 7.1281 5.51579 1 7.26502 -55.3127 -131.088
96 7.3281 5.51579 1 7.4479 -49.4373 75.6101
97 5.1281 5.71579 1 5.41894 -51.9431 136.659
98 5.3281 5.71579 1 5.59067 -50.7277 -2.00892
99 5.5281 5.71579 1 5.76422 -49.759 -135.603
100 5.7281 5.71579 1 5.93944 -49.4225 69.5536
101 5.9281 5.71579 1 6.11617 -51.5006 -65.7195
102 6.1281 5.71579 1 6.2943 -51.4075 144.067
103 6.3281 5.71579 1 6.47371 -56.0065 6.1069
104 6.5281 5.71579 1 6.65429 -52.0174 -140.832
105 6.7281 5.71579 1 6.83595 -52.5311 62.0098
106 6.9281 5.71579 1 7.01861 -49.4991 -100.238
107 7.1281 5.71579 1 7.20219 -49.0136 101.133
108 7.3281 5.71579 1 7.38663 -54.8534 -0.469573
109 5.1281 5.91579 1 5.34191 -48.925 -32.4645
110 5.3281 5.91579 1 5.51604 -49.0874 -164.767
111 5.5281 5.91579 1 5.69187 -45.8786 68.6108
112 5.7281 5.91579 1 5.86924 -50.9574 -72.1912
113 5.9281 5.91579 1 6.04803 -53.1182 158.292
114 6.1281 5.91579 1 6.22811 -52.734 10.5951
115 6.3281 5.91579 1 6.40937 -50.0516 -154.44
116 6.5281 5.91579 1 6.59171 -48.6072 47.2401
117 6.7281 5.91579 1 6.77505 -55.0516 -62.3728
118 6.9281 5.91579 1 6.95931 -49.6645 -130.933
119 7.1281 5.91579 1 7.14441 -49.042 69.115
120 7.3281 5.91579 1 7.3303 -47.7062 -98.8677
121 5.1281 6.11579 1 5.27135 -52.501 162.058
122 5.3281 6.11579 1 5.44773 -53.2327 62.3711
123 5.5281 6.11579 1 5.62569 -49.5671 -72.855
124 5.7281 6.11579 1 5.80509 -50.6223 164.185
125 5.9281 6.11579 1 5.98579 -48.9132 -2.08424
126 6.1281 6.11579 1 6.16769 -49.5658 -68.0122
127 6.3281 6.11579 1 6.35067 -45.3907 -159.243
128 6.5281 6.11579 1 6.53466 -44.9786 38.7165
129 6.7281 6.11579 1 6.71955 -48.0805 -130.395
130 6.9281 6.11579 1 6.90529 -46.1104 57.9991
131 7.1281 6.11579 1 7.09181 -47.6949 -130.543
132 7.3281 6.11579 1 7.27904 -47.6675 61.2015
133 5.1281 6.31579 1 5.20751 -56.0161 66.7614
134 5.3281 6.31579 1 5.38598 -51.4949 -90.6954
135 5.5281 6.31579 1 5.56592 -50.1802 -151.211
136 5.7281 6.31579 1 5.74719 -44.2973 146.64
137 5.9281 6.31579 1 5.92966 -45.3586 -1.46125
138 6.1281 6.31579 1 6.11322 -45.1945 -169.27
139 6.3281 6.31579 1 6.29779 -47.2985 26.7338
140 6.5281 6.31579 1 6.48327 -46.2704 -162.125
141 6.7281 6.31579 1 6.66959 -46.0328 15.2247
142 6.9281 6.31579 1 6.85669 -45.8933 -157.943
143 7.1281 6.31579 1 7.04449 -45.2684 18.2784
144 7.3281 6.31579 1 7.23294 -45.4199 -166.895
145 5.1281 6.51579 1 5.15065 -45.8762 85.918
146 5.3281 6.51579 1 5.33103 -46.2893 -76.3358
147 5.5281 6.51579 1 5.51276 -44.4132 117.334
148 5.7281 6.51579 1 5.69572 -43.4038 -46.0444
149 5.9281 6.51579 1 5.87979 -42.6725 153.929
150 6.1281 6.51579 1 6.06486 -44.2662 -14.5953
151 6.3281 6.51579 1 6.25086 -44.666 166.616
152 6.5281 6.51579 1 6.43769 -45.6391 -9.26818
153 6.7281 6.51579 1 6.6253 -50.2414 173.631
154 6.9281 6.51579 1 6.81361 -49.9762 -31.1873
155 7.1281 6.51579 1 7.00256 -49.9875 156.405
156 7.3281 6.51579 1 7.19212 -49.071 -30.9543
157 5.1281 6.71579 1 5.10101 -46.2189 -122.65
158 5.3281 6.71579 1 5.28308 -46.2209 76.5407
159 5.5281 6.71579 1 5.46641 -42.591 -93.4305
160 5.7281 6.71579 1 5.65087 -42.8607 85.6313
161 5.9281 6.71579 1 5.83635 -45.4946 -78.4756
162 6.1281 6.71579 1 6.02276 -46.5423 124.622
163 6.3281 6.71579 1 6.21002 -46.5887 -50.2393
164 6.5281 6.71579 1 6.39804 -48.58 120.659
165 6.7281 6.71579 1 6.58678 -47.4907 -46.0908
166 6.9281 6.71579 1 6.77616 -49.1673 120.43
167 7.1281 6.71579 1 6.96613 -49.5768 -86.832
168 7.3281 6.71579 1 7.15665 -49.8623 101.853
169 5.1281 6.91579 1 5.05879 -50.8522 -0.906576
170 5.3281 6.91579 1 5.24233 -52.5486 -140.764
171 5.5281 6.91579 1 5.42704 -50.7415 31.1355
172 5.7281 6.91579 1 5.61279 -47.5059 -146.499
173 5.9281 6.91579 1 5.79949 -48.3373 43.2423
174 6.1281 6.91579 1 5.98705 -49.0157 -117.844
175 6.3281 6.91579 1 6.17538 -48.5473 55.3391
176 6.5281 6.91579 1 6.36444 -52.1579 -116.621
177 6.7281 6.91579 1 6.55414 -51.5855 27.427
178 6.9281 6.91579 1 6.74443 -53.429 -139.486
179 7.1281 6.91579 1 6.93527 -52.6537 3.90505
180 7.3281 6.91579 1 7.12662 -52.4752 157.679
181 5.1281 7.11579 1 5.02419 -48.8677 143.097
182 5.3281 7.11579 1 5.20895 -48.3473 -18.2664
183 5.5281 7.11579 1 5.39479 -49.2864 159.492
184 5.7281 7.11579 1 5.58162 -49.2057 -19.7609
185 5.9281 7.11579 1 5.76933 -47.8271 154.277
186 6.1281 7.11579 1 5.95783 -48.5006 -22.7643
187 6.3281 7.11579 1 6.14707 -47.793 107.072
188 6.5281 7.11579 1 6.33696 -50.2443 -76.869
189 6.7281 7.11579 1 6.52746 -50.6475 92.1202
190 6.9281 7.11579 1 6.71852 -49.3162 -114.945
191 7.1281 7.11579 1 6.91007 -49.6274 46.4471
192 7.3281 7.11579 1 7.1021 -50.474 -144.229
193 5.1281 7.31579 1 4.99735 -48.6251 -167.21
194 5.3281 7.31579 1 5.18307 -50.0472 30.4569
195 5.5281 7.31579 1 5.36981 -48.4143 -151.411
196 5.7281 7.31579 1 5.55748 -53.6478 -25.3881
197 5.9281 7.31579 1 5.74597 -52.0665 139.236
198 6.1281 7.31579 1 5.93522 -53.1093 -12.7986
199 6.3281 7.31579 1 6.12516 -52.903 131.009
200 6.5281 7.31579 1 6.31571 -51.1097 -139.298
201 6.7281 7.31579 1 6.50683 -48.4393 37.3532
202 6.9281 7.31579 1 6.69847 -46.9993 -156.515
203 7.1281 7.31579 1 6.89059 -49.3002 11.5648
204 7.3281 7.31579 1 7.08314 -50.5849 112.163
205 5.1281 7.51579 1 4.97841 -55.3386 14.5574
206 5.3281 7.51579 1 5.16481 -58.4738 -90.478
207 5.5281 7.51579 1 5.35219 -58.9626 50.6349
208 5.7281 7.51579 1 5.54045 -66.7254 139.326
209 5.9281 7.51579 1 5.72951 -84.1224 19.7488
210 6.1281 7.51579 1 5.91929 -75.0104 -80.8721
211 6.3281 7.51579 1 6.10971 -70.0868 165.363
212 6.5281 7.51579 1 6.30074 -60.8998 71.5494
213 6.7281 7.51579 1 6.4923 -57.2351 -114.458
214 6.9281 7.51579 1 6.68435 -57.2626 89.1838
215 7.1281 7.51579 1 6.87686 -59.8289 -83.8637
216 7.3281 7.51579 1 7.06979 -55.0718 105.435
217 5.1281 7.71579 1 4.96746 -54.9785 115.897
218 5.3281 7.71579 1 5.15426 -54.7993 -28.5609
219 5.5281 7.71579 1 5.34201 -62.7518 169.299
220 5.7281 7.71579 1 5.53061 -70.1567 -76.8415
221 5.9281 7.71579 1 5.72 -59.1823 114.113
222 6.1281 7.71579 1 5.91008 -63.9884 -71.2406
223 6.3281 7.71579 1 6.10079 -57.7081 -151.604
224 6.5281 7.71579 1 6.29209 -66.215 43.4943
225 6.7281 7.71579 1 6.4839 -63.7489 -103.107
226 6.9281 7.71579 1 6.6762 -59.573 176.33
227 7.1281 7.71579 1 6.86894 -60.5 1.59378
228 7.3281 7.71579 1 7.06208 -58.371 -167.286
