#Rx
# X(m), Y(m), Z(m), Distance(m), Power (dBm) Phase (deg)
1 1.11931 0.155079 1 10.8665 -56.0189 19.2597
2 1.31931 0.155079 1 10.6693 -59.7633 43.1438
3 1.51931 0.155079 1 10.4722 -56.7418 173.429
4 1.71931 0.155079 1 10.2752 -55.9542 -38.2662
5 1.91931 0.155079 1 10.0784 -55.0941 110.224
6 2.11931 0.155079 1 9.88167 -56.1991 -76.305
7 2.31931 0.155079 1 9.68509 -58.626 -26.4564
8 2.51931 0.155079 1 9.48864 -58.932 150.74
9 2.71931 0.155079 1 9.29235 -56.6819 -73.5884
10 1.11931 0.355079 1 10.868 -51.7566 -28.7519
11 1.31931 0.355079 1 10.6709 -58.5954 115.891
12 1.51931 0.355079 1 10.4738 -61.8194 -169.742
13 1.71931 0.355079 1 10.2769 -57.2447 -15.8861
14 1.91931 0.355079 1 10.0801 -53.4342 140.567
15 2.11931 0.355079 1 9.88338 -53.7243 -24.9263
16 2.31931 0.355079 1 9.68683 -52.7305 156.079
17 2.51931 0.355079 1 9.49042 -56.0849 -5.07824
18 2.71931 0.355079 1 9.29417 -53.2895 174.286
19 1.11931 0.555079 1 10.8733 -55.0925 15.4754
20 1.31931 0.555079 1 10.6762 -59.1438 179.268
21 1.51931 0.555079 1 10.4792 -57.8512 71.6563
22 1.71931 0.555079 1 10.2824 -54.9078 -92.0984
23 1.91931 0.555079 1 10.0857 -56.462 93.701
24 2.11931 0.555079 1 9.88913 -55.2291 -43.9073
25 2.31931 0.555079 1 9.6927 -50.9917 156.949
26 2.51931 0.555079 1 9.49641 -50.7792 -17.8012
27 2.71931 0.555079 1 9.30029 -56.837 -179.497
28 1.11931 0.755079 1 10.8822 -48.9645 -84.7196
29 1.31931 0.755079 1 10.6853 -54.2701 108.365
30 1.51931 0.755079 1 10.4885 -56.1863 14.8387
31 1.71931 0.755079 1 10.2918 -50.3216 -139.978
32 1.91931 0.755079 1 10.0953 -48.9655 46.2527
33 2.11931 0.755079 1 9.89892 -49.2706 -118.304
34 2.31931 0.755079 1 9.70269 -49.7497 92.2477
35 2.51931 0.755079 1 9.50661 -50.9769 -76.8132
36 2.71931 0.755079 1 9.3107 -59.7341 143.459
37 1.11931 0.955079 1 10.8947 -54.4029 -104.265
38 1.31931 0.955079 1 10.6981 -56.2664 90.4851
39 1.51931 0.955079 1 10.5015 -59.6411 -6.8382
40 1.71931 0.955079 1 10.3051 -52.2634 -149.6
41 1.91931 0.955079 1 10.1089 -49.9509 42.1527
42 2.11931 0.955079 1 9.91274 -48.0978 -114.082
43 2.31931 0.955079 1 9.71679 -46.2211 81.9676
44 2.51931 0.955079 1 9.521 -45.5325 -97.1613
45 2.71931 0.955079 1 9.32539 -48.7634 80.9199
46 1.11931 1.15508 1 10.911 -48.2062 -147.178
47 1.31931 1.15508 1 10.7146 -49.1368 64.3639
48 1.51931 1.15508 1 10.5184 -49.1151 -83.3165
49 1.71931 1.15508 1 10.3223 -46.2383 120.422
50 1.91931 1.15508 1 10.1263 -44.9164 -48.5243
51 2.11931 1.15508 1 9.93057 -45.8013 134.836
52 2.31931 1.15508 1 9.73497 -48.213 -30.8173
53 2.51931 1.15508 1 9.53956 -48.3795 175.396
54 2.71931 1.15508 1 9.34434 -49.6801 7.06323
55 1.11931 1.35508 1 10.9308 -48.4297 112.264
56 1.31931 1.35508 1 10.7348 -50.0026 -54.2113
57 1.51931 1.35508 1 10.539 -55.8038 136.251
58 1.71931 1.35508 1 10.3433 -61.961 101.538
59 1.91931 1.35508 1 10.1477 -51.3864 -67.9474
60 2.11931 1.35508 1 9.95239 -48.92 106.385
61 2.31931 1.35508 1 9.75723 -48.6859 -66.7526
62 2.51931 1.35508 1 9.56227 -47.9908 121.301
63 2.71931 1.35508 1 9.36752 -52.543 -55.9254
64 1.11931 1.55508 1 10.9543 -48.5249 93.3285
65 1.31931 1.55508 1 10.7587 -48.7032 -48.6357
66 1.51931 1.55508 1 10.5633 -47.3624 156.297
67 1.71931 1.55508 1 10.3681 -47.3388 -3.66836
68 1.91931 1.55508 1 10.173 -45.5081 -170.127
69 2.11931 1.55508 1 9.97816 -44.3072 20.4912
70 2.31931 1.55508 1 9.78352 -44.3728 -144.319
71 2.51931 1.55508 1 9.58909 -43.3808 47.6682
72 2.71931 1.55508 1 9.3949 -42.7567 -128.328
73 1.11931 1.75508 1 10.9814 -44.5809 -41.7432
74 1.31931 1.75508 1 10.7863 -44.9571 151.219
75 1.51931 1.75508 1 10.5914 -47.2281 -14.5208
76 1.71931 1.75508 1 10.3967 -49.1297 -158.696
77 1.91931 1.75508 1 10.2022 -48.1067 58.3059
78 2.11931 1.75508 1 10.0079 -45.7778 -102.909
79 2.31931 1.75508 1 9.81382 -45.1118 85.2234
80 2.51931 1.75508 1 9.62 -46.0517 -91.7555
81 2.71931 1.75508 1 9.42645 -48.9801 95.0021
