#Rx
# X(m), Y(m), Z(m), Distance(m), Power (dBm) Phase (deg)
1 5.1281 4.11579 1 4.24804 -52.9431 -3.15886
2 5.3281 4.11579 1 4.28524 -60.0356 -64.063
3 5.5281 4.11579 1 4.33136 -52.0401 126.983
4 5.7281 4.11579 1 4.38613 -52.7946 -27.8545
5 5.9281 4.11579 1 4.44922 -59.7892 -145.034
6 6.1281 4.11579 1 4.52029 -52.0019 5.22963
7 6.3281 4.11579 1 4.59896 -48.6874 112.95
8 6.5281 4.11579 1 4.68486 -54.5675 -100.916
9 6.7281 4.11579 1 4.77759 -58.0663 123.808
10 6.9281 4.11579 1 4.87676 -51.8355 1.49355
11 7.1281 4.11579 1 4.98199 -46.1458 95.6545
12 7.3281 4.11579 1 5.0929 -55.9442 81.76
13 5.1281 4.31579 1 4.07086 -67.5041 -76.56
14 5.3281 4.31579 1 4.10967 -51.9277 74.8342
15 5.5281 4.31579 1 4.15774 -50.8231 -75.213
16 5.7281 4.31579 1 4.21476 -53.4054 116.637
17 5.9281 4.31579 1 4.28038 -50.7068 -9.46237
18 6.1281 4.31579 1 4.3542 -51.6313 122.948
19 6.3281 4.31579 1 4.43582 -56.5535 -149.935
20 6.5281 4.31579 1 4.52482 -57.5433 156.994
21 6.7281 4.31579 1 4.62076 -55.5088 -52.0919
22 6.9281 4.31579 1 4.72322 -46.9844 99.2357
23 7.1281 4.31579 1 4.8318 -56.865 139.286
24 7.3281 4.31579 1 4.94608 -46.2814 144.397
25 5.1281 4.51579 1 3.89589 -56.0546 82.9882
26 5.3281 4.51579 1 3.93642 -53.4108 -124.44
27 5.5281 4.51579 1 3.98659 -50.1938 66.6401
28 5.7281 4.51579 1 4.04602 -60.6972 -64.9894
29 5.9281 4.51579 1 4.11433 -53.1191 111.288
30 6.1281 4.51579 1 4.19108 -50.3383 -151.3
31 6.3281 4.51579 1 4.27582 -59.1636 -21.1344
32 6.5281 4.51579 1 4.36807 -75.0051 -84.203
33 6.7281 4.51579 1 4.46738 -49.6304 126.212
34 6.9281 4.51579 1 4.57328 -48.9851 -155.367
35 7.1281 4.51579 1 4.68534 -51.7697 139.669
36 7.3281 4.51579 1 4.8031 -50.1804 -146.375
37 5.1281 4.71579 1 3.72345 -56.4437 -103.026
38 5.3281 4.71579 1 3.76583 -54.4596 20.1293
39 5.5281 4.71579 1 3.81824 -54.6381 -138.071
40 5.7281 4.71579 1 3.88025 -50.9719 101.253
41 5.9281 4.71579 1 3.95143 -54.9105 -174.936
42 6.1281 4.71579 1 4.03128 -51.3813 -62.7657
43 6.3281 4.71579 1 4.11931 -68.8079 171.061
44 6.5281 4.71579 1 4.21499 -61.9992 130.457
45 6.7281 4.71579 1 4.31782 -50.2339 -162.811
46 6.9281 4.71579 1 4.4273 -53.091 169.527
47 7.1281 4.71579 1 4.54296 -48.4574 -106.681
48 7.3281 4.71579 1 4.66432 -54.6519 -135.356
49 5.1281 4.91579 1 3.55389 -63.6436 105.772
50 5.3281 4.91579 1 3.59827 -56.1873 116.25
51 5.5281 4.91579 1 3.65308 -55.5264 56.3079
52 5.7281 4.91579 1 3.71786 -55.0612 -141.103
53 5.9281 4.91579 1 3.79208 -52.1083 -79.1052
54 6.1281 4.91579 1 3.87522 -60.6162 122.811
55 6.3281 4.91579 1 3.96671 -57.8654 -42.3782
56 6.5281 4.91579 1 4.06598 -49.1655 -175.317
57 6.7281 4.91579 1 4.17249 -55.5935 -88.3307
58 6.9281 4.91579 1 4.28568 -50.1969 -102.019
59 7.1281 4.91579 1 4.40506 -55.4663 -71.6346
60 7.3281 4.91579 1 4.53012 -48.5473 -93.309
61 5.1281 5.11579 1 3.38766 -66.4918 25.6888
62 5.3281 5.11579 1 3.43419 -58.8734 -107.266
63 5.5281 5.11579 1 3.49157 -59.7292 176.85
64 5.7281 5.11579 1 3.55929 -59.4967 -146.145
65 5.9281 5.11579 1 3.63675 -52.6218 10.3597
66 6.1281 5.11579 1 3.72336 -60.5237 -137.073
67 6.3281 5.11579 1 3.81849 -55.2935 -150.377
68 6.5281 5.11579 1 3.92152 -56.5896 -101.017
69 6.7281 5.11579 1 4.03184 -54.9277 -132.566
70 6.9281 5.11579 1 4.14887 -50.2497 -63.598
71 7.1281 5.11579 1 4.27207 -51.0039 -81.8675
72 7.3281 5.11579 1 4.40091 -50.8983 -56.1337
73 5.1281 5.31579 1 3.22526 -49.2164 109.972
74 5.3281 5.31579 1 3.2741 -62.3439 -18.5603
75 5.5281 5.31579 1 3.33424 -49.1062 -40.834
76 5.7281 5.31579 1 3.40509 -48.5088 -44.1378
77 5.9281 5.31579 1 3.48598 -51.8691 107.333
78 6.1281 5.31579 1 3.57624 -55.0827 -137.018
79 6.3281 5.31579 1 3.67518 -55.152 -87.6059
80 6.5281 5.31579 1 3.78211 -61.6254 -40.2172
81 6.7281 5.31579 1 3.89638 -53.7594 -37.1929
82 6.9281 5.31579 1 4.01737 -55.6348 -28.5425
83 7.1281 5.31579 1 4.14448 -51.0256 -71.8913
84 7.3281 5.31579 1 4.27716 -55.7142 -78.3677
85 5.1281 5.51579 1 3.06731 -48.6901 -138.239
86 5.3281 5.51579 1 3.11862 -56.8955 74.9397
87 5.5281 5.51579 1 3.18171 -50.4736 -30.1245
88 5.7281 5.51579 1 3.25587 -46.6738 58.8058
89 5.9281 5.51579 1 3.34038 -52.2012 -117.844
90 6.1281 5.51579 1 3.43447 -59.6549 -165.008
91 6.3281 5.51579 1 3.53737 -56.03 -78.8984
92 6.5281 5.51579 1 3.64835 -51.0572 -28.7205
93 6.7281 5.51579 1 3.76668 -55.2304 -15.3987
94 6.9281 5.51579 1 3.8917 -54.3801 -76.8317
95 7.1281 5.51579 1 4.02278 -53.8126 -19.3727
96 7.3281 5.51579 1 4.15935 -51.5728 -109.725
97 5.1281 5.71579 1 2.91452 -49.7617 -48.7367
98 5.3281 5.71579 1 2.96848 -45.0024 -73.9568
99 5.5281 5.71579 1 3.03469 -48.2688 42.2332
100 5.7281 5.71579 1 3.11236 -54.7198 111.603
101 5.9281 5.71579 1 3.20066 -50.32 173.692
102 6.1281 5.71579 1 3.29873 -49.887 -64.542
103 6.3281 5.71579 1 3.40574 -52.6002 -20.5212
104 6.5281 5.71579 1 3.52087 -58.7633 -54.6289
105 6.7281 5.71579 1 3.64334 -51.5868 -20.3519
106 6.9281 5.71579 1 3.77245 -57.9156 -38.6102
107 7.1281 5.71579 1 3.90753 -53.7656 -94.7879
108 7.3281 5.71579 1 4.048 -57.6076 -129.61
109 5.1281 5.91579 1 2.76777 -56.4768 -74.0156
110 5.3281 5.91579 1 2.82453 -47.7355 -42.9335
111 5.5281 5.91579 1 2.89403 -49.7729 93.9185
112 5.7281 5.91579 1 2.97537 -51.6973 124.007
113 5.9281 5.91579 1 3.06762 -50.8727 -126.573
114 6.1281 5.91579 1 3.16981 -49.768 -97.6089
115 6.3281 5.91579 1 3.28103 -51.2313 -23.1934
116 6.5281 5.91579 1 3.40038 -54.7606 -13.6398
117 6.7281 5.91579 1 3.52704 -54.9061 -83.6892
118 6.9281 5.91579 1 3.66026 -50.6589 -66.1758
119 7.1281 5.91579 1 3.79933 -54.0662 -168.059
120 7.3281 5.91579 1 3.94365 -54.9675 162.637
121 5.1281 6.11579 1 2.62804 -55.7638 20.8573
122 5.3281 6.11579 1 2.68776 -45.7238 -27.519
123 5.5281 6.11579 1 2.7607 -52.4457 158.711
124 5.7281 6.11579 1 2.84586 -48.7438 139.971
125 5.9281 6.11579 1 2.94217 -51.5926 -177.889
126 6.1281 6.11579 1 3.04857 -49.3085 -73.0979
127 6.3281 6.11579 1 3.16405 -50.3007 -95.6344
128 6.5281 6.11579 1 3.28765 -55.7049 -18.2845
129 6.7281 6.11579 1 3.4185 -50.2294 -117.324
130 6.9281 6.11579 1 3.55578 -53.7442 165.53
131 7.1281 6.11579 1 3.69878 -57.3357 151.694
132 7.3281 6.11579 1 3.84687 -52.1801 39.1533
133 5.1281 6.31579 1 2.49653 -46.5181 -176.12
134 5.3281 6.31579 1 2.55932 -45.4617 5.41742
135 5.5281 6.31579 1 2.63582 -47.9692 160.307
136 5.7281 6.31579 1 2.72488 -50.9679 42.6825
137 5.9281 6.31579 1 2.82532 -50.2939 -164.788
138 6.1281 6.31579 1 2.93596 -44.7071 -166.19
139 6.3281 6.31579 1 3.0557 -53.533 -78.3249
140 6.5281 6.31579 1 3.18351 -47.3703 172.012
141 6.7281 6.31579 1 3.31846 -51.9653 142.018
142 6.9281 6.31579 1 3.45971 -52.8088 97.079
143 7.1281 6.31579 1 3.60653 -52.8046 58.7884
144 7.3281 6.31579 1 3.75826 -47.4142 -54.2243
145 5.1281 6.51579 1 2.37461 -51.9216 -145.663
146 5.3281 6.51579 1 2.44053 -54.6157 -60.3343
147 5.5281 6.51579 1 2.52064 -53.1617 160.373
148 5.7281 6.51579 1 2.61363 -56.6756 160.861
149 5.9281 6.51579 1 2.71818 -49.2949 74.3101
150 6.1281 6.51579 1 2.83301 -57.3235 123.45
151 6.3281 6.51579 1 2.95692 -51.2852 109.102
152 6.5281 6.51579 1 3.08882 -49.0266 83.7391
153 6.7281 6.51579 1 3.22773 -45.4627 17.6687
154 6.9281 6.51579 1 3.37279 -48.3468 3.27307
155 7.1281 6.51579 1 3.52323 -46.5424 -84.8432
156 7.3281 6.51579 1 3.67839 -48.0484 165.479
157 5.1281 6.71579 1 2.26381 -50.5755 157.222
158 5.3281 6.71579 1 2.33287 -52.697 6.55179
159 5.5281 6.71579 1 2.41655 -48.9768 92.6668
160 5.7281 6.71579 1 2.51339 -51.9646 -2.51533
161 5.9281 6.71579 1 2.62194 -54.4109 -63.544
162 6.1281 6.71579 1 2.74081 -54.5374 -20.0129
163 6.3281 6.71579 1 2.8687 -42.9763 -14.4158
164 6.5281 6.71579 1 3.00448 -44.9444 -56.4087
165 6.7281 6.71579 1 3.14712 -47.8638 -89.995
166 6.9281 6.71579 1 3.29572 -42.69 -138.973
167 7.1281 6.71579 1 3.44952 -44.0342 135.635
168 7.3281 6.71579 1 3.60786 -46.7577 17.4016
169 5.1281 6.91579 1 2.16585 -57.0169 60.9885
170 5.3281 6.91579 1 2.23794 -60.135 -140.171
171 5.5281 6.91579 1 2.32504 -45.7265 -51.1186
172 5.7281 6.91579 1 2.42554 -54.6831 178.097
173 5.9281 6.91579 1 2.53785 -53.6939 179.005
174 6.1281 6.91579 1 2.66047 -45.6619 -124.565
175 6.3281 6.91579 1 2.79205 -41.4463 -173.263
176 6.5281 6.91579 1 2.93138 -43.2185 167.308
177 6.7281 6.91579 1 3.0774 -43.4747 127.244
178 6.9281 6.91579 1 3.22922 -41.3707 50.8503
179 7.1281 6.91579 1 3.38604 -42.7809 -38.2553
180 7.3281 6.91579 1 3.54721 -49.044 -159.804
181 5.1281 7.11579 1 2.08255 -51.893 -64.7787
182 5.3281 7.11579 1 2.15741 -58.7089 80.1797
183 5.5281 7.11579 1 2.24764 -49.1009 -170.524
184 5.7281 7.11579 1 2.35145 -52.0323 65.3903
185 5.9281 7.11579 1 2.46713 -52.6347 78.9157
186 6.1281 7.11579 1 2.5931 -42.5967 69.6486
187 6.3281 7.11579 1 2.72793 -43.8672 28.9583
188 6.5281 7.11579 1 2.87038 -43.8941 2.40687
189 6.7281 7.11579 1 3.01935 -42.0424 -44.5105
190 6.9281 7.11579 1 3.17395 -41.8688 -153.086
191 7.1281 7.11579 1 3.33337 -44.4707 106.619
192 7.3281 7.11579 1 3.49697 -48.1323 -21.2339
193 5.1281 7.31579 1 2.01571 -51.8645 125.862
194 5.3281 7.31579 1 2.09297 -47.9946 129.647
195 5.5281 7.31579 1 2.18585 -54.3102 -131.767
196 5.7281 7.31579 1 2.29246 -50.856 -109.063
197 5.9281 7.31579 1 2.41098 -52.4648 -92.7657
198 6.1281 7.31579 1 2.53974 -43.8137 -126.816
199 6.3281 7.31579 1 2.67726 -42.9046 -154.248
200 6.5281 7.31579 1 2.82226 -42.7198 137.28
201 6.7281 7.31579 1 2.97365 -42.5076 94.8117
202 6.9281 7.31579 1 3.1305 -44.7291 -6.52242
203 7.1281 7.31579 1 3.29203 -44.6158 -105.94
204 7.3281 7.31579 1 3.45758 -46.7135 133.006
205 5.1281 7.51579 1 1.96702 -53.6968 130.153
206 5.3281 7.51579 1 2.04612 -46.7446 -78.2165
207 5.5281 7.51579 1 2.14103 -52.7836 15.9648
208 5.7281 7.51579 1 2.24977 -50.8755 51.687
209 5.9281 7.51579 1 2.37042 -56.2358 53.4239
210 6.1281 7.51579 1 2.50127 -46.8678 19.3193
211 6.3281 7.51579 1 2.64079 -43.1909 -32.4424
212 6.5281 7.51579 1 2.78769 -44.2784 -105.46
213 6.7281 7.51579 1 2.94086 -44.5779 -170.186
214 6.9281 7.51579 1 3.09937 -47.4612 106.917
215 7.1281 7.51579 1 3.26244 -46.6587 -12.027
216 7.3281 7.51579 1 3.42943 -48.8811 -124.361
217 5.1281 7.71579 1 1.93784 -57.7707 -132.495
218 5.3281 7.71579 1 2.01808 -49.9145 32.3426
219 5.5281 7.71579 1 2.11426 -50.0543 109.283
220 5.7281 7.71579 1 2.22431 -54.4796 122.021
221 5.9281 7.71579 1 2.34627 -58.3953 159.156
222 6.1281 7.71579 1 2.47839 -54.9109 114.619
223 6.3281 7.71579 1 2.61913 -46.9607 65.0026
224 6.5281 7.71579 1 2.76718 -47.5332 -9.19016
225 6.7281 7.71579 1 2.92143 -45.7553 -92.9562
226 6.9281 7.71579 1 3.08094 -49.4546 169.931
227 7.1281 7.71579 1 3.24494 -49.7481 44.7656
228 7.3281 7.71579 1 3.41278 -51.7554 -77.1678
