#Rx
# X(m), Y(m), Z(m), Distance(m), Power (dBm) Phase (deg)
1 4.10728 4.08383 1 8.79979 -65.4581 -71.2053
2 4.30728 4.08383 1 8.62445 -62.5141 47.4135
3 4.50728 4.08383 1 8.45021 -64.5164 157.723
4 4.70728 4.08383 1 8.27713 -62.062 -53.56
5 4.90728 4.08383 1 8.10529 -54.3402 50.1499
6 4.10728 4.28383 1 8.71566 -72.7968 70.476
7 4.30728 4.28383 1 8.53859 -64.8001 -109.08
8 4.50728 4.28383 1 8.36255 -57.6587 118.274
9 4.70728 4.28383 1 8.18762 -55.0208 -93.1884
10 4.90728 4.28383 1 8.01386 -60.1607 43.113
11 4.10728 4.48383 1 8.63533 -70.7792 -179.904
12 4.30728 4.48383 1 8.45658 -57.7012 70.7184
13 4.50728 4.48383 1 8.2788 -59.9327 -105.94
14 4.70728 4.48383 1 8.10206 -57.7297 33.1531
15 4.90728 4.48383 1 7.92643 -65.4727 68.9003
16 4.10728 4.68383 1 8.55893 -57.4935 97.431
17 4.30728 4.68383 1 8.37855 -57.7948 -155.951
18 4.50728 4.68383 1 8.19908 -60.6087 -80.6879
19 4.70728 4.68383 1 8.02058 -61.4364 55.1439
20 4.90728 4.68383 1 7.84312 -56.132 177.15
21 4.10728 4.88383 1 8.48655 -60.5443 -19.018
22 4.30728 4.88383 1 8.3046 -57.5794 -179.03
23 4.50728 4.88383 1 8.12349 -53.5193 -19.8067
24 4.70728 4.88383 1 7.9433 -59.0664 106.587
25 4.90728 4.88383 1 7.76407 -63.5568 147.142
26 4.10728 5.08383 1 8.4183 -51.1345 169.029
27 4.30728 5.08383 1 8.23484 -54.0659 -44.8182
28 4.50728 5.08383 1 8.05217 -56.3988 108.152
29 4.70728 5.08383 1 7.87034 -82.7201 -95.1638
30 4.90728 5.08383 1 7.68942 -56.4979 -166.803
31 4.10728 5.28383 1 8.35429 -55.2261 -13.9427
32 4.30728 5.28383 1 8.16939 -55.5585 -140.98
33 4.50728 5.28383 1 7.98522 -52.0839 18.227
34 4.70728 5.28383 1 7.80183 -54.0429 162.294
35 4.90728 5.28383 1 7.61928 -54.0223 -61.6962
36 4.10728 5.48383 1 8.2946 -49.4356 -166.146
37 4.30728 5.48383 1 8.10834 -47.5466 2.1323
38 4.50728 5.48383 1 7.92275 -49.0849 161.739
39 4.70728 5.48383 1 7.73788 -54.1894 6.36343
40 4.90728 5.48383 1 7.55379 -52.4809 -176.433
41 4.10728 5.68383 1 8.23934 -47.158 -28.6431
42 4.30728 5.68383 1 8.0518 -48.4854 154.585
43 4.50728 5.68383 1 7.86488 -49.0513 -16.3365
44 4.70728 5.68383 1 7.67862 -46.6193 163.64
45 4.90728 5.68383 1 7.49306 -46.8261 -44.5294
46 4.10728 5.88383 1 8.18859 -50.6641 129.127
47 4.30728 5.88383 1 7.99986 -47.1284 -40.18
48 4.50728 5.88383 1 7.8117 -46.5535 129.667
49 4.70728 5.88383 1 7.62413 -47.3461 -58.7172
50 4.90728 5.88383 1 7.43722 -48.486 116.929
51 4.10728 6.08383 1 8.14243 -47.2622 -75.8734
52 4.30728 6.08383 1 7.95261 -47.0885 86.9666
53 4.50728 6.08383 1 7.7633 -50.6203 -91.3245
54 4.70728 6.08383 1 7.57454 -48.6379 98.2926
55 4.90728 6.08383 1 7.38638 -50.1589 -102.12
56 4.10728 6.28383 1 8.10096 -51.0729 31.2579
57 4.30728 6.28383 1 7.91014 -56.9652 -136.678
58 4.50728 6.28383 1 7.71979 -52.6452 85.2522
59 4.70728 6.28383 1 7.52994 -51.6452 -110.365
60 4.90728 6.28383 1 7.34063 -51.4974 104.67
61 4.10728 6.48383 1 8.06423 -46.9071 -6.18788
62 4.30728 6.48383 1 7.87252 -50.5706 -176.341
63 4.50728 6.48383 1 7.68124 -46.7959 24.4138
64 4.70728 6.48383 1 7.49041 -47.3897 -159.69
65 4.90728 6.48383 1 7.30008 -57.3307 37.9511
66 4.10728 6.68383 1 8.03232 -48.9446 54.6718
67 4.30728 6.68383 1 7.83983 -52.5273 -82.6865
68 4.50728 6.68383 1 7.64773 -50.102 111.058
69 4.70728 6.68383 1 7.45604 -50.9308 -48.7829
70 4.90728 6.68383 1 7.26481 -49.4296 135.179
71 4.10728 6.88383 1 8.00527 -53.7927 177.46
72 4.30728 6.88383 1 7.81212 -51.0766 12.6989
73 4.50728 6.88383 1 7.61932 -51.4972 -150.711
74 4.70728 6.88383 1 7.4269 -49.8526 30.2659
75 4.90728 6.88383 1 7.23489 -48.5289 -135.846
76 4.10728 7.08383 1 7.98315 -50.9124 -115.956
77 4.30728 7.08383 1 7.78945 -53.6536 84.8439
78 4.50728 7.08383 1 7.59607 -50.4998 -89.8704
79 4.70728 7.08383 1 7.40305 -51.0213 114.269
80 4.90728 7.08383 1 7.21041 -50.6665 -67.8162
81 4.10728 7.28383 1 7.96599 -51.8161 -67.4401
82 4.30728 7.28383 1 7.77186 -52.0574 138.437
83 4.50728 7.28383 1 7.57804 -53.1191 -35.276
84 4.70728 7.28383 1 7.38454 -53.2365 150.642
85 4.90728 7.28383 1 7.1914 -56.5311 -15.3164
86 4.10728 7.48383 1 7.95382 -57.1896 75.1533
87 4.30728 7.48383 1 7.75939 -57.8094 -46.9018
88 4.50728 7.48383 1 7.56524 -53.2422 166.885
89 4.70728 7.48383 1 7.37141 -52.2744 142.476
90 4.90728 7.48383 1 7.17792 -53.2755 68.2013
91 4.10728 7.68383 1 7.94667 -59.7222 142.501
92 4.30728 7.68383 1 7.75206 -60.3075 -29.7542
93 4.50728 7.68383 1 7.55772 -67.9639 140.329
94 4.70728 7.68383 1 7.3637 -69.9914 15.589
95 4.90728 7.68383 1 7.17 -63.806 -67.3659
