#Rx
# X(m), Y(m), Z(m), Distance(m), Power (dBm) Phase (deg)
1 1.1339 2.14902 1 8.31417 -70.6715 79.3235
2 1.3339 2.14902 1 8.17697 -68.5359 -107.805
3 1.5339 2.14902 1 8.0424 -69.8729 49.6005
4 1.7339 2.14902 1 7.91061 -67.0276 98.4116
5 1.9339 2.14902 1 7.78172 -74.9275 113.6
6 2.1339 2.14902 1 7.65588 -61.8045 -167.882
7 2.3339 2.14902 1 7.53326 -63.5547 -84.9426
8 2.5339 2.14902 1 7.414 -60.9641 -120.045
9 2.7339 2.14902 1 7.29828 -60.0475 -111.953
10 2.9339 2.14902 1 7.18626 -54.9453 -140.182
11 3.1339 2.14902 1 7.07812 -52.9901 150.868
12 3.3339 2.14902 1 6.97404 -55.1636 83.1859
13 3.5339 2.14902 1 6.8742 -55.9353 21.7675
14 3.7339 2.14902 1 6.7788 -54.152 -62.1814
15 3.9339 2.14902 1 6.68801 -57.4474 -166.724
16 4.1339 2.14902 1 6.60204 -55.113 18.579
17 4.3339 2.14902 1 6.52107 -54.3354 -117.224
18 4.5339 2.14902 1 6.4453 -54.7944 99.8497
19 4.7339 2.14902 1 6.3749 -54.8361 -56.5069
20 4.9339 2.14902 1 6.31005 -53.7564 122.393
21 5.1339 2.14902 1 6.25093 -55.9168 -75.9123
22 5.3339 2.14902 1 6.19771 -56.3283 107.2
23 5.5339 2.14902 1 6.15053 -53.2634 -107.367
24 5.7339 2.14902 1 6.10954 -54.1181 -13.0016
25 5.9339 2.14902 1 6.07486 -51.1189 87.1309
26 6.1339 2.14902 1 6.0466 -49.3254 176.137
27 6.3339 2.14902 1 6.02485 -48.3135 -102.237
28 6.5339 2.14902 1 6.00968 -53.0703 -52.9433
29 6.7339 2.14902 1 6.00114 -53.6618 12.7743
30 6.9339 2.14902 1 5.99926 -70.0999 -49.1863
31 7.1339 2.14902 1 6.00405 -55.4367 -99.2281
32 7.3339 2.14902 1 6.01548 -51.8264 -117.845
33 7.5339 2.14902 1 6.03353 -51.8642 -155.22
34 7.7339 2.14902 1 6.05813 -54.9732 157.474
35 7.9339 2.14902 1 6.0892 -59.9541 19.3152
36 8.1339 2.14902 1 6.12664 -53.5427 -62.5155
37 8.3339 2.14902 1 6.17035 -53.1688 -173.704
38 8.5339 2.14902 1 6.22018 -57.5268 43.5952
39 1.1339 2.34902 1 8.17779 -72.8889 105.847
40 1.3339 2.34902 1 8.03827 -75.4174 19.442
41 1.5339 2.34902 1 7.90134 -67.4981 -90.7279
42 1.7339 2.34902 1 7.76715 -67.6926 70.3645
43 1.9339 2.34902 1 7.63584 -70.3863 -157.821
44 2.1339 2.34902 1 7.50756 -82.7895 128.076
45 2.3339 2.34902 1 7.38247 -65.3496 -95.7125
46 2.5339 2.34902 1 7.26074 -76.492 20.5365
47 2.7339 2.34902 1 7.14254 -59.2033 -52.2731
48 2.9339 2.34902 1 7.02803 -58.2599 -16.7698
49 3.1339 2.34902 1 6.91742 -52.5356 -77.5824
50 3.3339 2.34902 1 6.81088 -51.9972 -147.614
51 3.5339 2.34902 1 6.70862 -53.6701 140.348
52 3.7339 2.34902 1 6.61083 -52.8914 70.1684
53 3.9339 2.34902 1 6.5177 -59.3458 -38.1699
54 4.1339 2.34902 1 6.42946 -56.436 -135.044
55 4.3339 2.34902 1 6.34629 -52.1176 22.3047
56 4.5339 2.34902 1 6.26839 -53.4393 -119.747
57 4.7339 2.34902 1 6.19598 -54.3281 89.3639
58 4.9339 2.34902 1 6.12925 -53.6809 -83.3921
59 5.1339 2.34902 1 6.06837 -55.7192 90.2627
60 5.3339 2.34902 1 6.01353 -53.1752 -71.0939
61 5.5339 2.34902 1 5.9649 -53.7634 49.2412
62 5.7339 2.34902 1 5.92262 -56.8046 -164.335
63 5.9339 2.34902 1 5.88684 -49.8513 -98.1909
64 6.1339 2.34902 1 5.85767 -47.9994 -29.3953
65 6.3339 2.34902 1 5.83522 -48.2088 54.367
66 6.5339 2.34902 1 5.81955 -48.0732 114.387
67 6.7339 2.34902 1 5.81073 -49.1622 161.467
68 6.9339 2.34902 1 5.80879 -54.2945 168.576
69 7.1339 2.34902 1 5.81373 -57.3379 151.551
70 7.3339 2.34902 1 5.82554 -54.3896 58.8599
71 7.5339 2.34902 1 5.84417 -52.8705 5.68013
72 7.7339 2.34902 1 5.86957 -50.9301 -48.0107
73 7.9339 2.34902 1 5.90163 -52.7446 -125.026
74 8.1339 2.34902 1 5.94026 -53.5703 129.697
75 8.3339 2.34902 1 5.98533 -52.6062 -23.1077
76 8.5339 2.34902 1 6.03669 -53.6314 -156.081
77 1.1339 2.54902 1 8.04408 -72.4657 -13.6367
78 1.3339 2.54902 1 7.90219 -72.3846 -175.518
79 1.5339 2.54902 1 7.76287 -74.4309 96.7301
80 1.7339 2.54902 1 7.62624 -64.5144 -55.806
81 1.9339 2.54902 1 7.49246 -61.4186 117.866
82 2.1339 2.54902 1 7.36169 -64.4634 -117.743
83 2.3339 2.54902 1 7.23408 -69.7542 28.1273
84 2.5339 2.54902 1 7.1098 -62.3264 -29.2293
85 2.7339 2.54902 1 6.98904 -59.8316 34.6398
86 2.9339 2.54902 1 6.87198 -60.2068 -35.5613
87 3.1339 2.54902 1 6.75882 -56.3466 27.6273
88 3.3339 2.54902 1 6.64974 -55.6817 -38.5847
89 3.5339 2.54902 1 6.54496 -54.579 -90.6884
90 3.7339 2.54902 1 6.44468 -54.3903 -155.189
91 3.9339 2.54902 1 6.34912 -52.0603 86.2929
92 4.1339 2.54902 1 6.2585 -54.3318 -2.44931
93 4.3339 2.54902 1 6.17303 -51.7743 -174.539
94 4.5339 2.54902 1 6.09292 -50.062 40.9027
95 4.7339 2.54902 1 6.0184 -50.9723 -113.008
96 4.9339 2.54902 1 5.94967 -51.2565 75.5751
97 5.1339 2.54902 1 5.88694 -52.6049 -100.974
98 5.3339 2.54902 1 5.83039 -50.3431 69.2923
99 5.5339 2.54902 1 5.78022 -55.1581 -148.483
100 5.7339 2.54902 1 5.73658 -50.1207 -35.9886
101 5.9339 2.54902 1 5.69963 -49.0558 49.8068
102 6.1339 2.54902 1 5.6695 -49.8874 135.961
103 6.3339 2.54902 1 5.6463 -48.5956 -133.095
104 6.5339 2.54902 1 5.63011 -49.5459 -87.9732
105 6.7339 2.54902 1 5.62099 -48.7284 -60.8053
106 6.9339 2.54902 1 5.61898 -50.4421 -43.6559
107 7.1339 2.54902 1 5.62409 -49.066 -53.5692
108 7.3339 2.54902 1 5.6363 -52.6677 -98.5669
109 7.5339 2.54902 1 5.65555 -53.5833 -173.413
110 7.7339 2.54902 1 5.68179 -52.4297 106.614
111 7.9339 2.54902 1 5.71491 -49.2346 40.7707
112 8.1339 2.54902 1 5.75479 -50.9224 -62.3428
113 8.3339 2.54902 1 5.8013 -54.6898 155.249
114 8.5339 2.54902 1 5.85427 -53.7861 -0.605918
115 1.1339 2.74902 1 7.91316 -75.7151 -34.1227
116 1.3339 2.74902 1 7.76889 -69.6683 77.6546
117 1.5339 2.74902 1 7.62712 -68.3618 -112.301
118 1.7339 2.74902 1 7.48802 -67.5733 103.114
119 1.9339 2.74902 1 7.35173 -65.6038 -54.179
120 2.1339 2.74902 1 7.2184 -67.0432 71.0111
121 2.3339 2.74902 1 7.08821 -62.4993 -93.6209
122 2.5339 2.74902 1 6.96134 -63.3425 7.80048
123 2.7339 2.74902 1 6.83796 -69.6585 -134.778
124 2.9339 2.74902 1 6.71827 -56.2252 92.2915
125 3.1339 2.74902 1 6.60246 -60.1715 83.0227
126 3.3339 2.74902 1 6.49076 -54.0726 62.6586
127 3.5339 2.74902 1 6.38337 -54.6518 -13.1844
128 3.7339 2.74902 1 6.28051 -56.9518 -37.4619
129 3.9339 2.74902 1 6.18242 -51.1656 -121.333
130 4.1339 2.74902 1 6.08931 -51.57 147.746
131 4.3339 2.74902 1 6.00143 -53.0986 27.1807
132 4.5339 2.74902 1 5.919 -49.1233 -165.899
133 4.7339 2.74902 1 5.84226 -49.3923 37.6824
134 4.9339 2.74902 1 5.77144 -49.7027 -110.665
135 5.1339 2.74902 1 5.70674 -48.055 65.2065
136 5.3339 2.74902 1 5.6484 -51.3627 -153.46
137 5.5339 2.74902 1 5.59659 -52.2714 21.0535
138 5.7339 2.74902 1 5.55151 -51.451 92.7119
139 5.9339 2.74902 1 5.51332 -58.2912 -154.733
140 6.1339 2.74902 1 5.48217 -54.8513 -38.4222
141 6.3339 2.74902 1 5.45817 -55.9453 37.4646
142 6.5339 2.74902 1 5.44142 -57.0266 74.7513
143 6.7339 2.74902 1 5.43198 -51.5156 109.357
144 6.9339 2.74902 1 5.42991 -53.1539 109.657
145 7.1339 2.74902 1 5.43519 -48.4813 108.549
146 7.3339 2.74902 1 5.44782 -50.4464 86.3308
147 7.5339 2.74902 1 5.46774 -52.9275 27.8312
148 7.7339 2.74902 1 5.49488 -54.8322 -44.542
149 7.9339 2.74902 1 5.52911 -55.4326 -149.129
150 8.1339 2.74902 1 5.57033 -49.1321 78.8
151 8.3339 2.74902 1 5.61836 -50.3557 -44.7083
152 8.5339 2.74902 1 5.67304 -51.7345 140.779
153 1.1339 2.94902 1 7.78518 -77.7563 -61.4795
154 1.3339 2.94902 1 7.63849 -72.2661 155.406
155 1.5339 2.94902 1 7.49426 -65.4653 -10.7016
156 1.7339 2.94902 1 7.35264 -69.1255 -103.601
157 1.9339 2.94902 1 7.21379 -65.9525 73.792
158 2.1339 2.94902 1 7.07787 -72.5439 -129.213
159 2.3339 2.94902 1 6.94505 -75.8405 -48.4547
160 2.5339 2.94902 1 6.81551 -68.9124 -162.758
161 2.7339 2.94902 1 6.68944 -59.0902 67.3947
162 2.9339 2.94902 1 6.56704 -71.2573 -158.278
163 3.1339 2.94902 1 6.44852 -62.845 122.128
164 3.3339 2.94902 1 6.33411 -57.2554 -173.595
165 3.5339 2.94902 1 6.22401 -50.9224 115.051
166 3.7339 2.94902 1 6.11848 -55.4559 26.0917
167 3.9339 2.94902 1 6.01774 -52.4368 16.3407
168 4.1339 2.94902 1 5.92205 -51.9994 -82.3287
169 4.3339 2.94902 1 5.83165 -52.2326 169.061
170 4.5339 2.94902 1 5.74679 -48.7519 -22.8136
171 4.7339 2.94902 1 5.66771 -47.3179 176.63
172 4.9339 2.94902 1 5.59468 -51.7243 25.378
173 5.1339 2.94902 1 5.52792 -49.8196 -155.257
174 5.3339 2.94902 1 5.46766 -57.1289 37.7571
175 5.5339 2.94902 1 5.41412 -53.7229 115.498
176 5.7339 2.94902 1 5.36751 -67.5533 -142.275
177 5.9339 2.94902 1 5.328 -60.5218 127.548
178 6.1339 2.94902 1 5.29576 -62.4275 -139.14
179 6.3339 2.94902 1 5.27091 -57.8395 -76.7283
180 6.5339 2.94902 1 5.25356 -57.0551 -20.3478
181 6.7339 2.94902 1 5.24379 -57.8506 -28.972
182 6.9339 2.94902 1 5.24164 -55.5293 -26.0697
183 7.1339 2.94902 1 5.24712 -55.0476 -54.1835
184 7.3339 2.94902 1 5.2602 -55.5828 -125.212
185 7.5339 2.94902 1 5.28083 -52.7917 -165.405
186 7.7339 2.94902 1 5.30892 -51.2411 120.595
187 7.9339 2.94902 1 5.34435 -51.4963 30.4636
188 8.1339 2.94902 1 5.38697 -50.8689 -92.4239
189 8.3339 2.94902 1 5.43663 -53.3172 134.608
190 8.5339 2.94902 1 5.49312 -50.8235 -52.1446
191 1.1339 3.14902 1 7.66029 -71.2035 152.788
192 1.3339 3.14902 1 7.51115 -68.0404 -68.879
193 1.5339 3.14902 1 7.36443 -66.1608 146.852
194 1.7339 3.14902 1 7.22027 -64.2195 -14.7655
195 1.9339 3.14902 1 7.07882 -62.6048 -174.499
196 2.1339 3.14902 1 6.94026 -64.311 -18.2557
197 2.3339 3.14902 1 6.80475 -56.8331 142.883
198 2.5339 3.14902 1 6.67249 -63.5953 11.04
199 2.7339 3.14902 1 6.54366 -71.7678 -58.5521
200 2.9339 3.14902 1 6.41848 -67.5383 114.095
201 3.1339 3.14902 1 6.29717 -60.7134 -150.881
202 3.3339 3.14902 1 6.17995 -61.7844 175.632
203 3.5339 3.14902 1 6.06706 -52.5359 -135.692
204 3.7339 3.14902 1 5.95875 -49.973 140.638
205 3.9339 3.14902 1 5.85527 -59.7779 81.4133
206 4.1339 3.14902 1 5.75687 -54.3731 30.2241
207 4.3339 3.14902 1 5.66383 -51.5316 -68.0933
208 4.5339 3.14902 1 5.57642 -51.1228 165.1
209 4.7339 3.14902 1 5.4949 -49.0623 -40.3236
210 4.9339 3.14902 1 5.41953 -48.6876 -178.719
211 5.1339 3.14902 1 5.35059 -52.6961 -10.6752
212 5.3339 3.14902 1 5.28831 -51.7883 -170.285
213 5.5339 3.14902 1 5.23294 -62.4589 123.532
214 5.7339 3.14902 1 5.1847 -50.3175 -164.809
215 5.9339 3.14902 1 5.14379 -49.2116 -60.0707
216 6.1339 3.14902 1 5.11038 -47.8568 12.1329
217 6.3339 3.14902 1 5.08463 -47.2165 76.7953
218 6.5339 3.14902 1 5.06664 -47.2943 120.462
219 6.7339 3.14902 1 5.05651 -48.1213 138.768
220 6.9339 3.14902 1 5.05428 -46.854 147.715
221 7.1339 3.14902 1 5.05996 -49.2871 131.693
222 7.3339 3.14902 1 5.07352 -50.6651 95.997
223 7.5339 3.14902 1 5.09491 -49.2672 26.9213
224 7.7339 3.14902 1 5.12401 -50.8555 -51.8695
225 7.9339 3.14902 1 5.16071 -50.2043 -160.055
226 8.1339 3.14902 1 5.20484 -51.3601 73.8299
227 8.3339 3.14902 1 5.25622 -58.4823 -70.0042
228 8.5339 3.14902 1 5.31463 -52.8827 105.143
229 1.1339 3.34902 1 7.53863 -71.2207 17.6846
230 1.3339 3.34902 1 7.38704 -71.7997 -125.682
231 1.5339 3.34902 1 7.2378 -71.5476 68.813
232 1.7339 3.34902 1 7.09107 -75.6795 165.092
233 1.9339 3.34902 1 6.94699 -65.485 -55.523
234 2.1339 3.34902 1 6.80574 -61.6912 95.1761
235 2.3339 3.34902 1 6.6675 -59.3565 -27.4253
236 2.5339 3.34902 1 6.53246 -57.5291 -179.176
237 2.7339 3.34902 1 6.40081 -62.84 -49.2247
238 2.9339 3.34902 1 6.27279 -60.6749 126.122
239 3.1339 3.34902 1 6.1486 -64.5448 110.617
240 3.3339 3.34902 1 6.02849 -56.8224 -91.8047
241 3.5339 3.34902 1 5.91271 -62.5651 -51.7182
242 3.7339 3.34902 1 5.80152 -50.4559 -100.528
243 3.9339 3.34902 1 5.69518 -50.4871 159.723
244 4.1339 3.34902 1 5.59397 -55.4714 85.3108
245 4.3339 3.34902 1 5.49818 -57.82 77.5471
246 4.5339 3.34902 1 5.40809 -49.8355 -58.3324
247 4.7339 3.34902 1 5.32399 -51.4655 101.637
248 4.9339 3.34902 1 5.24617 -48.1615 -36.9823
249 5.1339 3.34902 1 5.17491 -50.2507 179.464
250 5.3339 3.34902 1 5.11049 -53.5978 -36.2771
251 5.5339 3.34902 1 5.05318 -51.2382 -172.705
252 5.7339 3.34902 1 5.0032 -48.4275 -36.203
253 5.9339 3.34902 1 4.96079 -46.6235 73.0516
254 6.1339 3.34902 1 4.92615 -45.2323 157.67
255 6.3339 3.34902 1 4.89942 -45.4338 -139.226
256 6.5339 3.34902 1 4.88076 -45.9053 -92.8579
257 6.7339 3.34902 1 4.87024 -45.6757 -69.0718
258 6.9339 3.34902 1 4.86792 -46.6391 -53.0972
259 7.1339 3.34902 1 4.87382 -47.6851 -78.21
260 7.3339 3.34902 1 4.8879 -47.6302 -109.961
261 7.5339 3.34902 1 4.91009 -47.5856 -159.45
262 7.7339 3.34902 1 4.94029 -49.4089 112.413
263 7.9339 3.34902 1 4.97834 -50.7631 4.35775
264 8.1339 3.34902 1 5.02407 -50.0394 -136.426
265 8.3339 3.34902 1 5.07728 -50.6237 79.925
266 8.5339 3.34902 1 5.13772 -51.6159 -78.7486
267 1.1339 3.54902 1 7.42037 -71.746 -176.09
268 1.3339 3.54902 1 7.26631 -68.7413 16.1421
269 1.5339 3.54902 1 7.11454 -78.481 121.298
270 1.7339 3.54902 1 6.96521 -70.1544 -20.8073
271 1.9339 3.54902 1 6.81847 -72.9712 -67.2757
272 2.1339 3.54902 1 6.67451 -66.9189 -148.234
273 2.3339 3.54902 1 6.53349 -83.7101 148.174
274 2.5339 3.54902 1 6.39562 -80.7227 -153.684
275 2.7339 3.54902 1 6.2611 -62.755 111.154
276 2.9339 3.54902 1 6.13015 -59.9077 -29.3572
277 3.1339 3.54902 1 6.00302 -59.204 179.02
278 3.3339 3.54902 1 5.87994 -57.2462 6.57599
279 3.5339 3.54902 1 5.76117 -58.571 -110.26
280 3.7339 3.54902 1 5.64699 -62.073 -14.4448
281 3.9339 3.54902 1 5.53769 -50.6471 -74.0314
282 4.1339 3.54902 1 5.43355 -50.8474 -153.221
283 4.3339 3.54902 1 5.33487 -62.7067 137.54
284 4.5339 3.54902 1 5.24198 -51.5569 65.2436
285 4.7339 3.54902 1 5.15517 -48.6336 -33.0059
286 4.9339 3.54902 1 5.07476 -46.8883 100.512
287 5.1339 3.54902 1 5.00106 -46.5274 -59.7473
288 5.3339 3.54902 1 4.93438 -59.794 125.275
289 5.5339 3.54902 1 4.87499 -49.2743 -30.1525
290 5.7339 3.54902 1 4.82317 -46.3621 101.439
291 5.9339 3.54902 1 4.77916 -47.0074 -153.466
292 6.1339 3.54902 1 4.74319 -48.6412 -65.8333
293 6.3339 3.54902 1 4.71543 -49.511 -3.35034
294 6.5339 3.54902 1 4.69603 -51.0117 59.7698
295 6.7339 3.54902 1 4.6851 -51.3617 97.757
296 6.9339 3.54902 1 4.68269 -53.7332 113.91
297 7.1339 3.54902 1 4.68882 -52.7086 84.0081
298 7.3339 3.54902 1 4.70345 -51.9446 45.8991
299 7.5339 3.54902 1 4.72651 -52.1469 -10.0323
300 7.7339 3.54902 1 4.75787 -49.7915 -108.454
301 7.9339 3.54902 1 4.79737 -49.9064 149.658
302 8.1339 3.54902 1 4.84481 -49.0107 16.3163
303 8.3339 3.54902 1 4.89997 -49.8146 -136.192
304 8.5339 3.54902 1 4.96257 -49.7288 44.8521
305 1.1339 3.74902 1 7.30567 -75.4631 -93.8189
306 1.3339 3.74902 1 7.14914 -72.0872 13.4969
307 1.5339 3.74902 1 6.99483 -92.3275 16.6315
308 1.7339 3.74902 1 6.84288 -68.6996 -28.0254
309 1.9339 3.74902 1 6.69347 -65.7246 -119.281
310 2.1339 3.74902 1 6.54675 -67.357 123.833
311 2.3339 3.74902 1 6.40292 -66.1662 73.1607
312 2.5339 3.74902 1 6.26217 -68.9563 69.3882
313 2.7339 3.74902 1 6.12473 -61.7609 -50.8454
314 2.9339 3.74902 1 5.9908 -63.1127 176.073
315 3.1339 3.74902 1 5.86064 -62.5539 84.4949
316 3.3339 3.74902 1 5.73451 -58.9572 -157.686
317 3.5339 3.74902 1 5.61267 -66.1813 -18.2529
318 3.7339 3.74902 1 5.4954 -60.2759 13.9919
319 3.9339 3.74902 1 5.38302 -55.3804 9.43836
320 4.1339 3.74902 1 5.27583 -52.7253 -23.6807
321 4.3339 3.74902 1 5.17415 -54.6933 -100.434
322 4.5339 3.74902 1 5.07831 -56.3146 151.556
323 4.7339 3.74902 1 4.98865 -49.7056 75.3769
324 4.9339 3.74902 1 4.90552 -48.8272 -113.274
325 5.1339 3.74902 1 4.82924 -47.8143 32.6432
326 5.3339 3.74902 1 4.76015 -56.7961 -42.2489
327 5.5339 3.74902 1 4.69856 -48.4115 130.955
328 5.7339 3.74902 1 4.64477 -47.3348 -99.423
329 5.9339 3.74902 1 4.59906 -49.6082 5.76149
330 6.1339 3.74902 1 4.56166 -52.5023 126.154
331 6.3339 3.74902 1 4.53279 -51.5526 -149.96
332 6.5339 3.74902 1 4.51261 -48.974 -84.4591
333 6.7339 3.74902 1 4.50123 -49.4771 -53.9162
334 6.9339 3.74902 1 4.49872 -48.7652 -50.6728
335 7.1339 3.74902 1 4.5051 -49.9622 -74.0097
336 7.3339 3.74902 1 4.52033 -49.0983 -109.853
337 7.5339 3.74902 1 4.54432 -51.4418 -175.281
338 7.7339 3.74902 1 4.57693 -50.7747 85.0474
339 7.9339 3.74902 1 4.61798 -52.709 -37.7031
340 8.1339 3.74902 1 4.66724 -51.5078 175.723
341 8.3339 3.74902 1 4.72447 -52.7884 -7.90847
342 8.5339 3.74902 1 4.78937 -48.7044 169.691
