#Rx
# X(m), Y(m), Z(m), Distance(m), Power (dBm) Phase (deg)
1 5.1281 4.11579 1 1.90896 -79.6601 106.603
2 5.3281 4.11579 1 1.85774 -55.3217 -162.597
3 5.5281 4.11579 1 1.8271 -56.8202 -169.398
4 5.7281 4.11579 1 1.81807 -59.8097 -147.856
5 5.9281 4.11579 1 1.83097 -52.8043 -117.74
6 6.1281 4.11579 1 1.86535 -52.5768 177.562
7 6.3281 4.11579 1 1.92006 -59.6624 42.4384
8 6.5281 4.11579 1 1.99341 -66.9864 145.538
9 6.7281 4.11579 1 2.08345 -59.5838 136.716
10 6.9281 4.11579 1 2.18812 -56.5888 -58.6618
11 7.1281 4.11579 1 2.30541 -69.7663 161.431
12 7.3281 4.11579 1 2.43352 -68.9767 -56.7878
13 5.1281 4.31579 1 1.94581 -59.0929 -130.703
14 5.3281 4.31579 1 1.89558 -53.4194 29.069
15 5.5281 4.31579 1 1.86556 -55.0518 -0.327319
16 5.7281 4.31579 1 1.85672 -53.6447 101.154
17 5.9281 4.31579 1 1.86935 -53.6687 54.0374
18 6.1281 4.31579 1 1.90304 -56.863 -24.4271
19 6.3281 4.31579 1 1.95669 -66.6835 -26.2329
20 6.5281 4.31579 1 2.02872 -63.1799 -12.8983
21 6.7281 4.31579 1 2.11726 -55.9282 106.818
22 6.9281 4.31579 1 2.22033 -56.0819 -117.005
23 7.1281 4.31579 1 2.33601 -60.696 152.318
24 7.3281 4.31579 1 2.46253 -59.0854 2.01451
25 5.1281 4.51579 1 2.00205 -59.9245 27.8719
26 5.3281 4.51579 1 1.95327 -55.191 177.609
27 5.5281 4.51579 1 1.92415 -50.6607 -110.901
28 5.7281 4.51579 1 1.91557 -64.4645 -100.355
29 5.9281 4.51579 1 1.92782 -49.3937 -90.7536
30 6.1281 4.51579 1 1.96051 -50.5006 172.987
31 6.3281 4.51579 1 2.01263 -53.8928 37.6808
32 6.5281 4.51579 1 2.08273 -53.5418 -160.703
33 6.7281 4.51579 1 2.16906 -57.8602 63.1277
34 6.9281 4.51579 1 2.26978 -57.1645 -65.0566
35 7.1281 4.51579 1 2.38306 -55.436 59.3852
36 7.3281 4.51579 1 2.5072 -61.2197 -71.5746
37 5.1281 4.71579 1 2.0761 -54.372 155.935
38 5.3281 4.71579 1 2.02911 -53.6184 -29.3988
39 5.5281 4.71579 1 2.00109 -52.1991 48.0096
40 5.7281 4.71579 1 1.99285 -52.883 64.6497
41 5.9281 4.71579 1 2.00463 -57.6894 41.2706
42 6.1281 4.71579 1 2.03608 -53.4734 -11.9627
43 6.3281 4.71579 1 2.08631 -52.438 -148.185
44 6.5281 4.71579 1 2.15401 -54.3643 31.2475
45 6.7281 4.71579 1 2.2376 -64.7814 22.5523
46 6.9281 4.71579 1 2.33537 -53.8101 170.486
47 7.1281 4.71579 1 2.44561 -60.2517 -94.2706
48 7.3281 4.71579 1 2.56673 -63.2696 136.185
49 5.1281 4.91579 1 2.16616 -55.8522 -84.6106
50 5.3281 4.91579 1 2.12116 -56.4555 18.1174
51 5.5281 4.91579 1 2.09437 -53.2044 147.44
52 5.7281 4.91579 1 2.0865 -55.3557 109.317
53 5.9281 4.91579 1 2.09775 -56.4076 128.633
54 6.1281 4.91579 1 2.12783 -52.1808 34.2645
55 6.3281 4.91579 1 2.17594 -57.2787 -89.4714
56 6.5281 4.91579 1 2.24094 -58.3242 35.9608
57 6.7281 4.91579 1 2.3214 -55.7175 179.359
58 6.9281 4.91579 1 2.41577 -55.4312 -94.5289
59 7.1281 4.91579 1 2.52251 -52.0898 -28.5809
60 7.3281 4.91579 1 2.6401 -56.2386 -55.8416
61 5.1281 5.11579 1 2.2703 -50.9568 -60.0692
62 5.3281 5.11579 1 2.22741 -52.627 90.3419
63 5.5281 5.11579 1 2.20191 -52.9401 131.841
64 5.7281 5.11579 1 2.19443 -50.403 -166.816
65 5.9281 5.11579 1 2.20513 -47.7078 159.061
66 6.1281 5.11579 1 2.23376 -55.658 79.4166
67 6.3281 5.11579 1 2.27964 -61.8183 -129.53
68 6.5281 5.11579 1 2.34176 -54.7992 121.25
69 6.7281 5.11579 1 2.41887 -59.1216 -100.585
70 6.9281 5.11579 1 2.50958 -54.1499 -11.5479
71 7.1281 5.11579 1 2.61248 -57.8471 51.2027
72 7.3281 5.11579 1 2.7262 -46.9878 75.0219
73 5.1281 5.31579 1 2.38669 -56.1906 -38.0403
74 5.3281 5.31579 1 2.34593 -51.5836 34.174
75 5.5281 5.31579 1 2.32174 -51.1907 160.335
76 5.7281 5.31579 1 2.31463 -51.2596 -151.908
77 5.9281 5.31579 1 2.32478 -63.6826 -120.555
78 6.1281 5.31579 1 2.35196 -58.8887 -127.529
79 6.3281 5.31579 1 2.39557 -50.4566 -16.8052
80 6.5281 5.31579 1 2.45476 -54.0637 -172.933
81 6.7281 5.31579 1 2.52843 -51.6911 -94.065
82 6.9281 5.31579 1 2.61534 -50.5343 45.0226
83 7.1281 5.31579 1 2.71424 -51.2641 104.569
84 7.3281 5.31579 1 2.82386 -48.8579 169.912
85 5.1281 5.51579 1 2.51363 -47.058 -95.2324
86 5.3281 5.51579 1 2.47495 -47.2575 74.0518
87 5.5281 5.51579 1 2.45204 -48.7204 141.176
88 5.7281 5.51579 1 2.44531 -51.5622 -158.88
89 5.9281 5.51579 1 2.45492 -61.8349 -139.121
90 6.1281 5.51579 1 2.48067 -49.623 36.5688
91 6.3281 5.51579 1 2.52206 -49.4401 -98.9981
92 6.5281 5.51579 1 2.57835 -46.739 89.2918
93 6.7281 5.51579 1 2.64858 -47.0264 -76.2085
94 6.9281 5.51579 1 2.73167 -48.4119 33.4702
95 7.1281 5.51579 1 2.8265 -45.3615 152.523
96 7.3281 5.51579 1 2.93193 -48.7614 -135.652
97 5.1281 5.71579 1 2.64959 -43.5484 -91.0734
98 5.3281 5.71579 1 2.61293 -43.1524 7.31623
99 5.5281 5.71579 1 2.59124 -50.5691 107.679
100 5.7281 5.71579 1 2.58488 -57.1183 47.6321
101 5.9281 5.71579 1 2.59397 -44.9142 27.672
102 6.1281 5.71579 1 2.61835 -46.183 -7.87532
103 6.3281 5.71579 1 2.6576 -49.8536 -91.2515
104 6.5281 5.71579 1 2.71107 -49.4424 103.421
105 6.7281 5.71579 1 2.77795 -51.4082 -91.0632
106 6.9281 5.71579 1 2.85728 -47.0736 53.8094
107 7.1281 5.71579 1 2.94808 -50.3088 159.647
108 7.3281 5.71579 1 3.0493 -45.8628 -119.985
109 5.1281 5.91579 1 2.79327 -41.3289 -160.659
110 5.3281 5.91579 1 2.75852 -44.9837 -9.17178
111 5.5281 5.91579 1 2.73798 -53.768 83.0986
112 5.7281 5.91579 1 2.73196 -49.9969 -18.1664
113 5.9281 5.91579 1 2.74056 -48.4063 -9.64244
114 6.1281 5.91579 1 2.76365 -48.6252 -33.9183
115 6.3281 5.91579 1 2.80087 -47.3293 163.646
116 6.5281 5.91579 1 2.85166 -44.4817 45.5673
117 6.7281 5.91579 1 2.91531 -46.8895 -111.543
118 6.9281 5.91579 1 2.991 -47.3417 26.0606
119 7.1281 5.91579 1 3.07785 -47.3681 159.26
120 7.3281 5.91579 1 3.17494 -52.8477 -145.663
121 5.1281 6.11579 1 2.94354 -41.7956 155.952
122 5.3281 6.11579 1 2.91058 -44.5916 -81.6014
123 5.5281 6.11579 1 2.89112 -49.5064 -86.0136
124 5.7281 6.11579 1 2.88542 -44.6598 -74.6327
125 5.9281 6.11579 1 2.89357 -42.4206 -55.7211
126 6.1281 6.11579 1 2.91544 -46.8043 -123.053
127 6.3281 6.11579 1 2.95074 -45.9559 129.44
128 6.5281 6.11579 1 2.99899 -47.8312 5.35131
129 6.7281 6.11579 1 3.05958 -47.8835 -178.744
130 6.9281 6.11579 1 3.13179 -48.2715 6.60753
131 7.1281 6.11579 1 3.21484 -50.6033 95.5412
132 7.3281 6.11579 1 3.30791 -47.3712 -139.9
133 5.1281 6.31579 1 3.09942 -42.2433 67.5619
134 5.3281 6.31579 1 3.06814 -45.4518 -153.875
135 5.5281 6.31579 1 3.04969 -56.0153 112.304
136 5.7281 6.31579 1 3.04428 -44.1648 -142.986
137 5.9281 6.31579 1 3.05201 -47.5241 -133.203
138 6.1281 6.31579 1 3.07276 -50.0856 132.21
139 6.3281 6.31579 1 3.10627 -46.0122 39.1245
140 6.5281 6.31579 1 3.15214 -49.7857 -62.1194
141 6.7281 6.31579 1 3.20984 -47.2784 108.935
142 6.9281 6.31579 1 3.27874 -46.1659 -72.6967
143 7.1281 6.31579 1 3.35816 -48.0403 74.0396
144 7.3281 6.31579 1 3.44736 -50.7026 -174.107
145 5.1281 6.51579 1 3.26013 -44.0932 -31.8345
146 5.3281 6.51579 1 3.23041 -47.809 90.6151
147 5.5281 6.51579 1 3.21288 -52.3606 92.771
148 5.7281 6.51579 1 3.20776 -44.0113 114.323
149 5.9281 6.51579 1 3.21509 -48.748 125.353
150 6.1281 6.51579 1 3.23479 -49.8937 30.0274
151 6.3281 6.51579 1 3.26664 -46.6478 -42.5209
152 6.5281 6.51579 1 3.31029 -50.3646 160.669
153 6.7281 6.51579 1 3.36528 -48.44 20.6542
154 6.9281 6.51579 1 3.43106 -51.8822 -171.583
155 7.1281 6.51579 1 3.50703 -50.1033 -8.39256
156 7.3281 6.51579 1 3.59254 -55.475 78.3032
157 5.1281 6.71579 1 3.42498 -44.5328 -136.631
158 5.3281 6.71579 1 3.3967 -52.9691 -76.5264
159 5.5281 6.71579 1 3.38004 -47.9334 -47.5972
160 5.7281 6.71579 1 3.37516 -45.5658 -11.4304
161 5.9281 6.71579 1 3.38213 -58.0525 -20.3995
162 6.1281 6.71579 1 3.40087 -45.9344 -93.9164
163 6.3281 6.71579 1 3.43118 -49.4726 -158.769
164 6.5281 6.71579 1 3.47276 -52.0331 63.9564
165 6.7281 6.71579 1 3.52521 -49.8087 -26.9958
166 6.9281 6.71579 1 3.58806 -58.502 68.7702
167 7.1281 6.71579 1 3.66078 -53.61 -122.956
168 7.3281 6.71579 1 3.74278 -48.0115 9.45868
169 5.1281 6.91579 1 3.5934 -44.8258 83.1121
170 5.3281 6.91579 1 3.56645 -56.1672 137.081
171 5.5281 6.91579 1 3.55059 -49.9225 155.279
172 5.7281 6.91579 1 3.54595 -50.0732 -156.369
173 5.9281 6.91579 1 3.55258 -58.8886 147.337
174 6.1281 6.91579 1 3.57042 -45.5529 134.799
175 6.3281 6.91579 1 3.5993 -54.3639 37.563
176 6.5281 6.91579 1 3.63897 -50.9933 -57.8072
177 6.7281 6.91579 1 3.68906 -52.4377 -115.998
178 6.9281 6.91579 1 3.74916 -51.2924 6.15573
179 7.1281 6.91579 1 3.81881 -54.1438 119.934
180 7.3281 6.91579 1 3.89749 -50.2283 -72.2179
181 5.1281 7.11579 1 3.76491 -45.5672 -98.2322
182 5.3281 7.11579 1 3.7392 -52.7965 -105.465
183 5.5281 7.11579 1 3.72407 -50.2676 6.6958
184 5.7281 7.11579 1 3.71965 -69.2124 -3.07066
185 5.9281 7.11579 1 3.72597 -55.0787 -35.9414
186 6.1281 7.11579 1 3.74299 -48.6669 -19.8378
187 6.3281 7.11579 1 3.77055 -48.9689 -163.931
188 6.5281 7.11579 1 3.80842 -46.7546 178.479
189 6.7281 7.11579 1 3.85632 -48.6731 26.4587
190 6.9281 7.11579 1 3.91386 -49.1053 -98.3672
191 7.1281 7.11579 1 3.98062 -59.9556 29.7526
192 7.3281 7.11579 1 4.05616 -60.7166 -125.765
193 5.1281 7.31579 1 3.93911 -48.6586 111.582
194 5.3281 7.31579 1 3.91454 -55.1811 110.43
195 5.5281 7.31579 1 3.90009 -52.9686 -119.233
196 5.7281 7.31579 1 3.89587 -60.446 -5.77914
197 5.9281 7.31579 1 3.90191 -53.0494 -153.771
198 6.1281 7.31579 1 3.91816 -54.09 -138.064
199 6.3281 7.31579 1 3.9445 -48.3548 70.5537
200 6.5281 7.31579 1 3.98072 -53.3224 34.2779
201 6.7281 7.31579 1 4.02656 -48.8236 -123.354
202 6.9281 7.31579 1 4.0817 -53.3572 134.737
203 7.1281 7.31579 1 4.14577 -49.7198 -96.3799
204 7.3281 7.31579 1 4.21835 -55.0717 40.0131
205 5.1281 7.51579 1 4.11565 -48.9116 -75.2967
206 5.3281 7.51579 1 4.09215 -52.808 -94.3756
207 5.5281 7.51579 1 4.07833 -51.1619 106.968
208 5.7281 7.51579 1 4.07429 -51.3775 -97.7117
209 5.9281 7.51579 1 4.08006 -49.6452 81.2257
210 6.1281 7.51579 1 4.09561 -55.3559 -127.41
211 6.3281 7.51579 1 4.12081 -49.2443 -74.3546
212 6.5281 7.51579 1 4.1555 -53.5048 132.102
213 6.7281 7.51579 1 4.19943 -48.2226 87.4762
214 6.9281 7.51579 1 4.25233 -53.9804 -70.5582
215 7.1281 7.51579 1 4.31386 -47.6146 148.31
216 7.3281 7.51579 1 4.38366 -46.5276 -74.0523
217 5.1281 7.71579 1 4.29425 -49.5383 140.908
218 5.3281 7.71579 1 4.27173 -51.0744 127.655
219 5.5281 7.71579 1 4.25849 -47.9636 -49.0251
220 5.7281 7.71579 1 4.25463 -63.3402 -123.39
221 5.9281 7.71579 1 4.26016 -51.3322 -63.0406
222 6.1281 7.71579 1 4.27505 -57.543 139.421
223 6.3281 7.71579 1 4.2992 -49.8193 152.61
224 6.5281 7.71579 1 4.33246 -51.3253 -24.9722
225 6.7281 7.71579 1 4.37462 -47.157 -20.4415
226 6.9281 7.71579 1 4.42542 -47.301 151.834
227 7.1281 7.71579 1 4.48458 -53.5236 44.6357
228 7.3281 7.71579 1 4.55176 -47.8494 171.423
