#Rx
# X(m), Y(m), Z(m), Distance(m), Power (dBm) Phase (deg)
1 2.05257 4.1024 1 4.83114 -52.4784 148.041
2 2.25257 4.1024 1 4.73573 -57.5796 88.2596
3 2.45257 4.1024 1 4.64698 -65.0985 -56.33
4 2.65257 4.1024 1 4.56526 -52.8817 -150.629
5 2.85257 4.1024 1 4.49097 -51.7544 108.273
6 3.05257 4.1024 1 4.42448 -55.4192 157.827
7 3.25257 4.1024 1 4.36615 -57.2762 10.3378
8 3.45257 4.1024 1 4.31631 -59.2862 -74.2058
9 3.65257 4.1024 1 4.27525 -57.8756 -149.002
10 3.85257 4.1024 1 4.24323 -59.8267 59.2589
11 2.05257 4.3024 1 4.67554 -52.6056 -146.367
12 2.25257 4.3024 1 4.57689 -56.4458 169.755
13 2.45257 4.3024 1 4.48499 -57.7341 94.4899
14 2.65257 4.3024 1 4.40026 -50.3721 -83.7647
15 2.85257 4.3024 1 4.32314 -49.553 178.003
16 3.05257 4.3024 1 4.25403 -57.3485 -164.711
17 3.25257 4.3024 1 4.19333 -57.7053 134.73
18 3.45257 4.3024 1 4.1414 -59.151 -28.841
19 3.65257 4.3024 1 4.09859 -55.938 -64.7028
20 3.85257 4.3024 1 4.06518 -54.0573 163.926
21 2.05257 4.5024 1 4.52343 -57.659 -64.7179
22 2.25257 4.5024 1 4.42138 -51.2253 -88.0173
23 2.45257 4.5024 1 4.32618 -56.3761 -167.162
24 2.65257 4.5024 1 4.23828 -71.8497 19.1797
25 2.85257 4.5024 1 4.15816 -52.5615 -66.7436
26 3.05257 4.5024 1 4.08626 -49.0795 -172.015
27 3.25257 4.5024 1 4.02302 -56.4191 -48.512
28 3.45257 4.5024 1 3.96887 -55.3076 137.298
29 3.65257 4.5024 1 3.92418 -67.0874 89.813
30 3.85257 4.5024 1 3.88927 -57.4938 -63.0026
31 2.05257 4.7024 1 4.37517 -50.7607 -4.14994
32 2.25257 4.7024 1 4.26958 -51.2359 -86.0788
33 2.45257 4.7024 1 4.17092 -64.399 -138.697
34 2.65257 4.7024 1 4.07968 -53.543 -83.3599
35 2.85257 4.7024 1 3.99637 -52.3076 98.7051
36 3.05257 4.7024 1 3.92151 -47.0029 -67.3867
37 3.25257 4.7024 1 3.85557 -51.9 163.16
38 3.45257 4.7024 1 3.79904 -52.3415 -118.381
39 3.65257 4.7024 1 3.75232 -58.8674 11.8656
40 3.85257 4.7024 1 3.71579 -56.8598 118.961
41 2.05257 4.9024 1 4.23117 -63.1535 132.152
42 2.25257 4.9024 1 4.1219 -52.881 21.5943
43 2.45257 4.9024 1 4.01961 -50.8096 -23.8358
44 2.65257 4.9024 1 3.92486 -54.1393 -113.23
45 2.85257 4.9024 1 3.83819 -61.3818 -29.9114
46 3.05257 4.9024 1 3.76018 -57.2066 76.0177
47 3.25257 4.9024 1 3.69136 -50.277 -68.3235
48 3.45257 4.9024 1 3.63227 -61.4163 57.8351
49 3.65257 4.9024 1 3.58338 -51.6995 -168.672
50 3.85257 4.9024 1 3.54512 -59.4117 -28.8028
51 2.05257 5.1024 1 4.09189 -51.4405 77.4155
52 2.25257 5.1024 1 3.97879 -61.4207 55.1691
53 2.45257 5.1024 1 3.87272 -55.3739 19.7293
54 2.65257 5.1024 1 3.77428 -49.575 -34.4417
55 2.85257 5.1024 1 3.68408 -57.8436 -124.135
56 3.05257 5.1024 1 3.60273 -65.3321 134.131
57 3.25257 5.1024 1 3.53085 -50.5051 21.5829
58 3.45257 5.1024 1 3.46902 -52.0283 -136.108
59 3.65257 5.1024 1 3.4178 -49.1051 -26.883
60 3.85257 5.1024 1 3.37766 -56.8663 73.4388
61 2.05257 5.3024 1 3.95781 -56.4208 151.999
62 2.25257 5.3024 1 3.84077 -56.3523 128.481
63 2.45257 5.3024 1 3.73078 -53.9596 26.6323
64 2.65257 5.3024 1 3.62849 -66.8516 126.116
65 2.85257 5.3024 1 3.53457 -47.1351 -25.837
66 3.05257 5.3024 1 3.44969 -51.3196 -140.572
67 3.25257 5.3024 1 3.37455 -53.234 81.8624
68 3.45257 5.3024 1 3.30981 -51.122 -20.2013
69 3.65257 5.3024 1 3.25608 -50.511 87.4276
70 3.85257 5.3024 1 3.21392 -50.9647 -139.846
71 2.05257 5.5024 1 3.82949 -51.6628 151.407
72 2.25257 5.5024 1 3.7084 -54.0078 120.009
73 2.45257 5.5024 1 3.59436 -50.1899 174.566
74 2.65257 5.5024 1 3.48807 -48.1455 60.9906
75 2.85257 5.5024 1 3.39026 -52.9015 -5.82718
76 3.05257 5.5024 1 3.30168 -49.0454 -75.0279
77 3.25257 5.5024 1 3.22309 -51.7992 153.552
78 3.45257 5.5024 1 3.15524 -49.1032 46.9605
79 3.65257 5.5024 1 3.09884 -43.928 63.2017
80 3.85257 5.5024 1 3.05451 -48.204 -40.5608
81 2.05257 5.7024 1 3.70752 -50.7827 123.21
82 2.25257 5.7024 1 3.58231 -54.0053 160.202
83 2.45257 5.7024 1 3.46412 -53.6602 108.89
84 2.65257 5.7024 1 3.35371 -51.7624 143.473
85 2.85257 5.7024 1 3.25186 -49.1455 40.0632
86 3.05257 5.7024 1 3.1594 -50.5263 -30.9948
87 3.25257 5.7024 1 3.07718 -46.7762 -140.382
88 3.45257 5.7024 1 3.00604 -48.1392 61.4731
89 3.65257 5.7024 1 2.94678 -41.8194 118.607
90 3.85257 5.7024 1 2.90013 -47.426 22.0739
91 2.05257 5.9024 1 3.59255 -55.1466 121.95
92 2.25257 5.9024 1 3.46318 -54.5462 76.4812
93 2.45257 5.9024 1 3.34079 -52.0038 173.567
94 2.65257 5.9024 1 3.22616 -52.4599 91.6322
95 2.85257 5.9024 1 3.12015 -49.1075 86.7491
96 3.05257 5.9024 1 3.02366 -44.8488 -12.9735
97 3.25257 5.9024 1 2.93765 -47.5632 -124.603
98 3.45257 5.9024 1 2.86304 -48.377 107.361
99 3.65257 5.9024 1 2.80075 -46.7696 172.62
100 3.85257 5.9024 1 2.75163 -54.2572 91.0444
101 2.05257 6.1024 1 3.48527 -55.093 3.49976
102 2.25257 6.1024 1 3.35177 -51.3483 124.186
103 2.45257 6.1024 1 3.22515 -53.5051 54.3982
104 2.65257 6.1024 1 3.10625 -50.2656 130.133
105 2.85257 6.1024 1 2.996 -48.1126 41.5961
106 3.05257 6.1024 1 2.89539 -52.3984 -6.55829
107 3.25257 6.1024 1 2.80544 -48.0855 -87.312
108 3.45257 6.1024 1 2.72722 -49.5907 148.564
109 3.65257 6.1024 1 2.66176 -48.4029 -118.428
110 3.85257 6.1024 1 2.61001 -42.9193 9.70158
111 2.05257 6.3024 1 3.38642 -57.2134 -83.1945
112 2.25257 6.3024 1 3.24886 -50.3659 -19.2201
113 2.45257 6.3024 1 3.11806 -55.0343 47.7786
114 2.65257 6.3024 1 2.99492 -52.2826 15.4939
115 2.85257 6.3024 1 2.88041 -54.2073 49.6829
116 3.05257 6.3024 1 2.77561 -50.3417 -34.1863
117 3.25257 6.3024 1 2.68164 -54.4722 -101.976
118 3.45257 6.3024 1 2.5997 -50.218 162.44
119 3.65257 6.3024 1 2.53094 -51.3746 -138.851
120 3.85257 6.3024 1 2.47647 -55.085 -69.4838
121 2.05257 6.5024 1 3.29675 -47.8582 -154.145
122 2.25257 6.5024 1 3.15528 -50.9288 -142.187
123 2.45257 6.5024 1 3.02044 -48.533 -92.7666
124 2.65257 6.5024 1 2.89314 -49.9297 -32.9367
125 2.85257 6.5024 1 2.77443 -52.5406 -115.898
126 3.05257 6.5024 1 2.66547 -58.7022 -28.2537
127 3.25257 6.5024 1 2.56748 -52.4083 159.474
128 3.45257 6.5024 1 2.48177 -54.2729 -97.5797
129 3.65257 6.5024 1 2.40964 -59.7069 153.276
130 3.85257 6.5024 1 2.35236 -55.2322 67.6659
131 2.05257 6.7024 1 3.21703 -46.5577 49.4651
132 2.25257 6.7024 1 3.07189 -43.3951 119.763
133 2.45257 6.7024 1 2.93322 -47.7466 164.797
134 2.65257 6.7024 1 2.80196 -45.2946 150.726
135 2.85257 6.7024 1 2.67922 -51.0971 -118.791
136 3.05257 6.7024 1 2.56621 -55.039 134.566
137 3.25257 6.7024 1 2.46428 -57.1306 -93.0087
138 3.45257 6.7024 1 2.37484 -49.3945 59.6449
139 3.65257 6.7024 1 2.29937 -52.1737 -136.678
140 3.85257 6.7024 1 2.23927 -49.5806 26.884
141 2.05257 6.9024 1 3.14802 -43.4691 -64.892
142 2.25257 6.9024 1 2.99954 -44.5065 -21.405
143 2.45257 6.9024 1 2.85735 -40.3604 4.6603
144 2.65257 6.9024 1 2.72244 -47.861 44.7682
145 2.85257 6.9024 1 2.59594 -45.8609 30.9489
146 3.05257 6.9024 1 2.47914 -62.8256 -96.5832
147 3.25257 6.9024 1 2.37347 -57.2967 89.8845
148 3.45257 6.9024 1 2.28048 -60.8084 -36.854
149 3.65257 6.9024 1 2.20178 -49.6999 -162.335
150 3.85257 6.9024 1 2.13894 -53.176 -29.5391
151 2.05257 7.1024 1 3.09043 -41.9896 105.793
152 2.25257 7.1024 1 2.93904 -42.6564 -167.949
153 2.45257 7.1024 1 2.79378 -44.183 -169.045
154 2.65257 7.1024 1 2.65564 -41.7508 -110.499
155 2.85257 7.1024 1 2.5258 -46.5391 -103.304
156 3.05257 7.1024 1 2.40559 -51.5772 -122.689
157 3.25257 7.1024 1 2.29654 -56.4322 -126.412
158 3.45257 7.1024 1 2.2003 -54.3443 128.519
159 3.65257 7.1024 1 2.11862 -51.0545 30.3338
160 3.85257 7.1024 1 2.05323 -50.43 -179.035
161 2.05257 7.3024 1 3.04491 -42.1489 -114.457
162 2.25257 7.3024 1 2.89114 -41.833 -30.2991
163 2.45257 7.3024 1 2.74334 -46.274 13.0348
164 2.65257 7.3024 1 2.60253 -44.292 44.6509
165 2.85257 7.3024 1 2.46989 -45.9969 81.0996
166 3.05257 7.3024 1 2.34683 -52.6737 103.304
167 3.25257 7.3024 1 2.23491 -48.8811 83.4746
168 3.45257 7.3024 1 2.13589 -53.6054 17.3249
169 3.65257 7.3024 1 2.05165 -55.207 -113.05
170 3.85257 7.3024 1 1.98406 -66.6358 107.102
171 2.05257 7.5024 1 3.01201 -45.1628 -3.16198
172 2.25257 7.5024 1 2.85647 -42.8628 62.8463
173 2.45257 7.5024 1 2.70678 -44.506 148.173
174 2.65257 7.5024 1 2.56395 -47.8712 173.291
175 2.85257 7.5024 1 2.42922 -49.0975 -170.636
176 3.05257 7.5024 1 2.30398 -49.8103 -105.257
177 3.25257 7.5024 1 2.18987 -52.2784 -146.814
178 3.45257 7.5024 1 2.08872 -50.0068 -173.903
179 3.65257 7.5024 1 2.0025 -48.8011 35.8388
180 3.85257 7.5024 1 1.93319 -52.4348 -145.906
181 2.05257 7.7024 1 2.99214 -49.3916 67.6736
182 2.25257 7.7024 1 2.83551 -46.1407 145.857
183 2.45257 7.7024 1 2.68465 -46.3789 -123.99
184 2.65257 7.7024 1 2.54059 -51.5172 -73.4937
185 2.85257 7.7024 1 2.40454 -57.5828 -81.5251
186 3.05257 7.7024 1 2.27794 -47.0229 -15.5229
187 3.25257 7.7024 1 2.16247 -54.2862 10.6396
188 3.45257 7.7024 1 2.05997 -47.1632 -68.5703
189 3.65257 7.7024 1 1.97249 -48.4098 133.24
190 3.85257 7.7024 1 1.90209 -49.419 -45.5897
