#Rx
# X(m), Y(m), Z(m), Distance(m), Power (dBm) Phase (deg)
1 2.98542 0.133894 1 8.85222 -62.0159 45.8906
2 3.18542 0.133894 1 8.76584 -55.2197 -138.117
3 3.38542 0.133894 1 8.6832 -57.5359 79.2465
4 3.58542 0.133894 1 8.60442 -55.1586 -46.7391
5 3.78542 0.133894 1 8.5296 -57.3813 156.55
6 3.98542 0.133894 1 8.45885 -54.7637 5.56077
7 4.18542 0.133894 1 8.39227 -55.6044 177.158
8 4.38542 0.133894 1 8.32996 -55.1759 -15.0262
9 4.58542 0.133894 1 8.27202 -58.8915 145.16
10 2.98542 0.333894 1 8.67795 -56.2026 -171.664
11 3.18542 0.333894 1 8.58981 -57.0429 78.3161
12 3.38542 0.333894 1 8.50546 -53.9493 -113.109
13 3.58542 0.333894 1 8.42502 -53.5637 115.381
14 3.78542 0.333894 1 8.34859 -54.4687 -42.1835
15 3.98542 0.333894 1 8.27629 -54.8696 160.943
16 4.18542 0.333894 1 8.20823 -55.9057 -11.6666
17 4.38542 0.333894 1 8.14451 -57.3787 172.365
18 4.58542 0.333894 1 8.08524 -60.4726 -17.869
19 2.98542 0.533894 1 8.5048 -54.1717 -24.1615
20 3.18542 0.533894 1 8.41485 -56.2177 -138.189
21 3.38542 0.533894 1 8.32873 -53.0203 52.4837
22 3.58542 0.533894 1 8.24656 -54.2206 -84.295
23 3.78542 0.533894 1 8.16846 -53.4926 132.881
24 3.98542 0.533894 1 8.09456 -54.3635 -17.3204
25 4.18542 0.533894 1 8.02496 -55.2807 175.552
26 4.38542 0.533894 1 7.95977 -54.4711 -2.87394
27 4.58542 0.533894 1 7.89911 -58.8728 155.889
28 2.98542 0.733894 1 8.33286 -54.5871 131.16
29 3.18542 0.733894 1 8.24103 -55.314 19.443
30 3.38542 0.733894 1 8.15307 -55.4234 -97.0611
31 3.58542 0.733894 1 8.06912 -55.0805 83.4886
32 3.78542 0.733894 1 7.98929 -52.5407 -59.638
33 3.98542 0.733894 1 7.91371 -54.0964 143.876
34 4.18542 0.733894 1 7.8425 -53.7257 -19.2344
35 4.38542 0.733894 1 7.77578 -56.5823 169.642
36 4.58542 0.733894 1 7.71368 -60.3597 -28.9568
37 2.98542 0.933894 1 8.16219 -59.4084 -76.7622
38 3.18542 0.933894 1 8.06842 -53.8999 -169.722
39 3.38542 0.933894 1 7.97856 -53.5534 56.5165
40 3.58542 0.933894 1 7.89275 -54.1043 -127.804
41 3.78542 0.933894 1 7.81112 -54.1065 100.409
42 3.98542 0.933894 1 7.7338 -55.4415 -47.3666
43 4.18542 0.933894 1 7.66092 -53.879 161.676
44 4.38542 0.933894 1 7.59261 -55.8901 5.41152
45 4.58542 0.933894 1 7.52899 -56.5249 163.742
46 2.98542 1.13389 1 7.99289 -61.4314 16.086
47 3.18542 1.13389 1 7.89711 -58.4595 -33.9526
48 3.38542 1.13389 1 7.80528 -54.4969 -140.112
49 3.58542 1.13389 1 7.71754 -56.0343 93.5404
50 3.78542 1.13389 1 7.63403 -52.0216 -97.0381
51 3.98542 1.13389 1 7.5549 -53.4505 105.094
52 4.18542 1.13389 1 7.48028 -53.2996 -33.4911
53 4.38542 1.13389 1 7.4103 -54.5283 164.299
54 4.58542 1.13389 1 7.34511 -55.8831 -26.3228
55 2.98542 1.33389 1 7.82503 -57.6482 123.478
56 3.18542 1.33389 1 7.72717 -65.6525 87.5221
57 3.38542 1.33389 1 7.6333 -53.9426 10.5187
58 3.58542 1.33389 1 7.54356 -54.7082 -122.066
59 3.78542 1.33389 1 7.4581 -53.8781 44.1221
60 3.98542 1.33389 1 7.37708 -53.6998 -92.4961
61 4.18542 1.33389 1 7.30064 -53.4231 132.77
62 4.38542 1.33389 1 7.22893 -53.84 -30.6192
63 4.58542 1.33389 1 7.16209 -53.493 148.705
64 2.98542 1.53389 1 7.65872 -52.766 -103.229
65 3.18542 1.53389 1 7.55871 -59.5446 175.835
66 3.38542 1.53389 1 7.46271 -58.2376 131.827
67 3.58542 1.53389 1 7.3709 -56.2097 37.5009
68 3.78542 1.53389 1 7.28342 -54.9234 -83.2768
69 3.98542 1.53389 1 7.20043 -51.9139 63.8066
70 4.18542 1.53389 1 7.1221 -53.0518 -74.8062
71 4.38542 1.53389 1 7.04857 -53.8206 131.106
72 4.58542 1.53389 1 6.98 -54.3055 -43.5638
73 2.98542 1.73389 1 7.49405 -53.2672 20.239
74 3.18542 1.73389 1 7.39181 -54.7452 -56.0853
75 3.38542 1.73389 1 7.29362 -60.8917 -115.06
76 3.58542 1.73389 1 7.19965 -54.9633 171.441
77 3.78542 1.73389 1 7.11007 -55.3581 52.1375
78 3.98542 1.73389 1 7.02503 -52.3838 -144.965
79 4.18542 1.73389 1 6.94472 -52.4799 80.5252
80 4.38542 1.73389 1 6.86929 -53.6984 -74.5853
81 4.58542 1.73389 1 6.79891 -54.7547 127.788
