#Rx
# X(m), Y(m), Z(m), Distance(m), Power (dBm) Phase (deg)
1 1.11931 0.155079 1 13.3333 -55.3951 167.777
2 1.31931 0.155079 1 13.1729 -56.6176 -102.033
3 1.51931 0.155079 1 13.0136 -55.4225 -5.64456
4 1.71931 0.155079 1 12.8555 -57.5832 68.7811
5 1.91931 0.155079 1 12.6986 -54.1453 163.671
6 2.11931 0.155079 1 12.5429 -56.4494 -95.3828
7 2.31931 0.155079 1 12.3884 -56.0775 -32.0341
8 2.51931 0.155079 1 12.2353 -59.6585 63.8974
9 2.71931 0.155079 1 12.0836 -59.667 120.411
10 1.11931 0.355079 1 13.2186 -55.8575 151.707
11 1.31931 0.355079 1 13.0568 -56.4426 -129.829
12 1.51931 0.355079 1 12.8961 -53.9087 -22.1289
13 1.71931 0.355079 1 12.7365 -56.309 77.6242
14 1.91931 0.355079 1 12.5781 -55.9341 158.015
15 2.11931 0.355079 1 12.4209 -58.1742 -104.949
16 2.31931 0.355079 1 12.2649 -58.161 -31.8039
17 2.51931 0.355079 1 12.1102 -59.9127 77.4391
18 2.71931 0.355079 1 11.9569 -60.3755 160.613
19 1.11931 0.555079 1 13.1059 -54.5175 133.581
20 1.31931 0.555079 1 12.9428 -56.9214 -135.714
21 1.51931 0.555079 1 12.7806 -55.0707 -37.6617
22 1.71931 0.555079 1 12.6196 -56.9679 54.7112
23 1.91931 0.555079 1 12.4597 -55.5449 146.398
24 2.11931 0.555079 1 12.301 -58.7734 -113.926
25 2.31931 0.555079 1 12.1434 -61.2867 -4.18194
26 2.51931 0.555079 1 11.9872 -60.5856 83.712
27 2.71931 0.555079 1 11.8323 -59.8168 145.379
28 1.11931 0.755079 1 12.9954 -56.6003 104.706
29 1.31931 0.755079 1 12.8308 -57.2339 -162.545
30 1.51931 0.755079 1 12.6673 -55.0483 -61.9279
31 1.71931 0.755079 1 12.5048 -56.4921 41.8965
32 1.91931 0.755079 1 12.3434 -59.7583 117.417
33 2.11931 0.755079 1 12.1831 -62.9484 -121.965
34 2.31931 0.755079 1 12.0241 -59.2436 -36.5854
35 2.51931 0.755079 1 11.8662 -57.4112 82.7139
36 2.71931 0.755079 1 11.7097 -58.6385 167.432
37 1.11931 0.955079 1 12.887 -57.6985 71.0999
38 1.31931 0.955079 1 12.721 -58.3699 174.094
39 1.51931 0.955079 1 12.556 -56.2383 -104.403
40 1.71931 0.955079 1 12.3921 -56.6346 -2.507
41 1.91931 0.955079 1 12.2292 -57.6449 99.7485
42 2.11931 0.955079 1 12.0674 -60.6539 -137.236
43 2.31931 0.955079 1 11.9068 -61.1603 -45.4513
44 2.51931 0.955079 1 11.7474 -58.4444 47.8956
45 2.71931 0.955079 1 11.5893 -54.8282 166.752
46 1.11931 1.15508 1 12.7808 -60.5021 23.8174
47 1.31931 1.15508 1 12.6135 -58.3772 127.585
48 1.51931 1.15508 1 12.447 -56.4851 -129.48
49 1.71931 1.15508 1 12.2816 -59.5816 -35.5419
50 1.91931 1.15508 1 12.1173 -57.5647 58.2312
51 2.11931 1.15508 1 11.954 -57.65 -178.424
52 2.31931 1.15508 1 11.7918 -59.7609 -35.5634
53 2.51931 1.15508 1 11.6309 -59.0201 45.5719
54 2.71931 1.15508 1 11.4711 -56.4239 137.104
55 1.11931 1.35508 1 12.6769 -63.0026 -19.1649
56 1.31931 1.35508 1 12.5082 -58.3001 72.6127
57 1.51931 1.35508 1 12.3403 -55.5607 -170.48
58 1.71931 1.35508 1 12.1735 -56.7893 -57.658
59 1.91931 1.35508 1 12.0076 -62.2346 42.1887
60 2.11931 1.35508 1 11.8428 -61.0384 147.05
61 2.31931 1.35508 1 11.6791 -59.3281 -79.7174
62 2.51931 1.35508 1 11.5166 -59.567 27.2917
63 2.71931 1.35508 1 11.3552 -56.8022 113.433
64 1.11931 1.55508 1 12.5753 -55.1953 32.1007
65 1.31931 1.55508 1 12.4052 -66.2171 26.6209
66 1.51931 1.55508 1 12.236 -59.7795 126.942
67 1.71931 1.55508 1 12.0677 -57.664 -109.61
68 1.91931 1.55508 1 11.9003 -61.4763 -0.656076
69 2.11931 1.55508 1 11.734 -61.9484 104.786
70 2.31931 1.55508 1 11.5688 -59.7117 -123.27
71 2.51931 1.55508 1 11.4047 -57.522 -7.24534
72 2.71931 1.55508 1 11.2417 -59.3362 91.0267
73 1.11931 1.75508 1 12.4761 -56.1001 -61.3624
74 1.31931 1.75508 1 12.3046 -57.307 98.6333
75 1.51931 1.75508 1 12.134 -61.9802 -145.713
76 1.71931 1.75508 1 11.9642 -57.5073 -159.444
77 1.91931 1.75508 1 11.7955 -60.2039 -39.7128
78 2.11931 1.75508 1 11.6277 -63.5878 72.8147
79 2.31931 1.75508 1 11.4609 -61.5137 -167.849
80 2.51931 1.75508 1 11.2952 -59.2909 -46.4175
81 2.71931 1.75508 1 11.1306 -58.572 52.8547
