#Rx
# X(m), Y(m), Z(m), Distance(m), Power (dBm) Phase (deg)
1 6.94247 0.172736 1 7.90676 -66.3903 151.416
2 7.14247 0.172736 1 7.91061 -51.7644 1.16381
3 7.34247 0.172736 1 7.91951 -53.5056 -84.9645
4 7.54247 0.172736 1 7.93344 -49.9313 -100.956
5 7.74247 0.172736 1 7.95238 -53.2744 -104.585
6 7.94247 0.172736 1 7.97629 -55.6956 138.358
7 8.14247 0.172736 1 8.00513 -54.4707 80.8411
8 8.34247 0.172736 1 8.03884 -50.5408 -32.7875
9 8.54247 0.172736 1 8.07737 -55.9401 -63.0164
10 8.74247 0.172736 1 8.12064 -54.4759 -2.12958
11 6.94247 0.372736 1 7.71215 -58.2314 18.8267
12 7.14247 0.372736 1 7.7161 -53.2398 177.64
13 7.34247 0.372736 1 7.72522 -58.2892 115.426
14 7.54247 0.372736 1 7.7395 -52.5715 52.4405
15 7.74247 0.372736 1 7.75892 -50.6503 51.5489
16 7.94247 0.372736 1 7.78342 -56.4645 -11.8489
17 8.14247 0.372736 1 7.81297 -57.8279 -83.9076
18 8.34247 0.372736 1 7.84751 -62.9771 -66.1085
19 8.54247 0.372736 1 7.88697 -54.1602 113.07
20 8.74247 0.372736 1 7.93128 -55.0474 132.905
21 6.94247 0.572736 1 7.51783 -52.6985 -154.355
22 7.14247 0.572736 1 7.52188 -51.1178 -1.3889
23 7.34247 0.572736 1 7.53123 -53.4975 10.9401
24 7.54247 0.572736 1 7.54588 -62.6638 124.831
25 7.74247 0.572736 1 7.56579 -52.5357 -141.317
26 7.94247 0.572736 1 7.59092 -56.9812 -149.295
27 8.14247 0.572736 1 7.62122 -55.9193 69.2456
28 8.34247 0.572736 1 7.65662 -55.4346 154.371
29 8.54247 0.572736 1 7.69706 -55.5914 -126.884
30 8.74247 0.572736 1 7.74245 -56.8472 -24.1424
31 6.94247 0.772736 1 7.32381 -54.4687 36.2521
32 7.14247 0.772736 1 7.32796 -53.8262 172.569
33 7.34247 0.772736 1 7.33757 -50.2118 175.834
34 7.54247 0.772736 1 7.3526 -57.5072 -164.976
35 7.74247 0.772736 1 7.37303 -56.7604 55.5403
36 7.94247 0.772736 1 7.39882 -63.0725 30.8752
37 8.14247 0.772736 1 7.4299 -54.2426 -106.623
38 8.34247 0.772736 1 7.46621 -53.5006 -57.6672
39 8.54247 0.772736 1 7.50767 -60.7929 -137.746
40 8.74247 0.772736 1 7.5542 -62.1745 166.948
41 6.94247 0.972736 1 7.13012 -51.9091 -145.86
42 7.14247 0.972736 1 7.13438 -66.7034 -177.525
43 7.34247 0.972736 1 7.14425 -56.0817 -12.8915
44 7.54247 0.972736 1 7.15969 -54.6906 37.1176
45 7.74247 0.972736 1 7.18067 -54.6683 -100.928
46 7.94247 0.972736 1 7.20714 -58.2128 -114.717
47 8.14247 0.972736 1 7.23904 -57.0284 39.5057
48 8.34247 0.972736 1 7.27631 -57.9886 151.469
49 8.54247 0.972736 1 7.31885 -62.3735 75.6817
50 8.74247 0.972736 1 7.36657 -52.5598 -7.18031
51 6.94247 1.17274 1 6.93678 -63.4308 40.1948
52 7.14247 1.17274 1 6.94117 -51.484 -64.6687
53 7.34247 1.17274 1 6.95131 -63.945 -141.043
54 7.54247 1.17274 1 6.96718 -54.813 172.474
55 7.74247 1.17274 1 6.98874 -57.3938 109.181
56 7.94247 1.17274 1 7.01593 -55.6302 32.3005
57 8.14247 1.17274 1 7.0487 -58.5197 -49.979
58 8.34247 1.17274 1 7.08696 -52.7382 0.811026
59 8.54247 1.17274 1 7.13063 -60.5093 -148.195
60 8.74247 1.17274 1 7.17961 -53.151 158.726
61 6.94247 1.37274 1 6.74384 -54.6105 -45.2828
62 7.14247 1.37274 1 6.74835 -49.0553 109.734
63 7.34247 1.37274 1 6.75878 -58.0678 109.098
64 7.54247 1.37274 1 6.7751 -50.7336 46.4936
65 7.74247 1.37274 1 6.79727 -55.8808 -8.4104
66 7.94247 1.37274 1 6.82523 -59.3419 -157.026
67 8.14247 1.37274 1 6.85891 -53.703 -92.9312
68 8.34247 1.37274 1 6.89822 -50.6806 170.95
69 8.54247 1.37274 1 6.94308 -54.9771 33.0622
70 8.74247 1.37274 1 6.99337 -52.717 -58.7136
71 6.94247 1.57274 1 6.55132 -52.6688 123.328
72 7.14247 1.57274 1 6.55596 -49.6812 -70.9172
73 7.34247 1.57274 1 6.5667 -55.2876 -111.603
74 7.54247 1.57274 1 6.58349 -52.2622 -161.038
75 7.74247 1.57274 1 6.6063 -49.5969 162.043
76 7.94247 1.57274 1 6.63507 -70.0683 100.837
77 8.14247 1.57274 1 6.66971 -53.6029 111.523
78 8.34247 1.57274 1 6.71013 -52.7302 -13.1072
79 8.54247 1.57274 1 6.75624 -57.3473 -132.823
80 8.74247 1.57274 1 6.80791 -57.885 102.835
81 6.94247 1.77274 1 6.35926 -49.7762 -63.425
82 7.14247 1.77274 1 6.36405 -51.9393 83.7245
83 7.34247 1.77274 1 6.3751 -54.4467 108.328
84 7.54247 1.77274 1 6.3924 -53.7811 21.7018
85 7.74247 1.77274 1 6.41589 -50.3626 -29.5268
86 7.94247 1.77274 1 6.44551 -53.2072 -96.5178
87 8.14247 1.77274 1 6.48116 -49.7537 -67.3048
88 8.34247 1.77274 1 6.52275 -52.7148 161.375
89 8.54247 1.77274 1 6.57017 -54.1408 64.614
90 8.74247 1.77274 1 6.62329 -62.0504 -121.255
