#Rx
# X(m), Y(m), Z(m), Distance(m), Power (dBm) Phase (deg)
1 1.11931 0.155079 1 7.96375 -71.7068 -90.1658
2 1.31931 0.155079 1 7.98176 -63.6506 177.036
3 1.51931 0.155079 1 8.00473 -53.6638 95.4861
4 1.71931 0.155079 1 8.03261 -53.5881 16.368
5 1.91931 0.155079 1 8.06536 -53.7506 -77.6365
6 2.11931 0.155079 1 8.10291 -52.8009 178.949
7 2.31931 0.155079 1 8.1452 -53.6064 60.4357
8 2.51931 0.155079 1 8.19216 -52.3427 16.3351
9 2.71931 0.155079 1 8.2437 -59.5614 -37.877
10 1.11931 0.355079 1 7.76969 -68.8031 79.5314
11 1.31931 0.355079 1 7.78815 -61.4337 10.4727
12 1.51931 0.355079 1 7.81169 -52.1339 -77.1532
13 1.71931 0.355079 1 7.84026 -51.0649 -152.96
14 1.91931 0.355079 1 7.8738 -51.0608 115.145
15 2.11931 0.355079 1 7.91226 -50.9462 13.4438
16 2.31931 0.355079 1 7.95557 -51.8886 -100.691
17 2.51931 0.355079 1 8.00364 -54.5108 -156.011
18 2.71931 0.355079 1 8.05639 -49.1053 100.31
19 1.11931 0.555079 1 7.57594 -67.2958 -77.5933
20 1.31931 0.555079 1 7.59487 -62.9589 -176.232
21 1.51931 0.555079 1 7.61901 -52.2693 114.794
22 1.71931 0.555079 1 7.64829 -50.8009 33.3385
23 1.91931 0.555079 1 7.68268 -50.5447 -61.55
24 2.11931 0.555079 1 7.72209 -50.3719 -167.858
25 2.31931 0.555079 1 7.76646 -47.8788 93.2363
26 2.51931 0.555079 1 7.81569 -57.2105 18.6052
27 2.71931 0.555079 1 7.8697 -51.7272 -89.3315
28 1.11931 0.755079 1 7.38253 -66.2224 112.781
29 1.31931 0.755079 1 7.40195 -70.9628 79.02
30 1.51931 0.755079 1 7.42671 -51.7932 -46.6321
31 1.71931 0.755079 1 7.45675 -50.3902 -134.681
32 1.91931 0.755079 1 7.49202 -50.2899 131.786
33 2.11931 0.755079 1 7.53243 -50.5067 14.7245
34 2.31931 0.755079 1 7.5779 -51.9171 -19.1845
35 2.51931 0.755079 1 7.62835 -58.1738 -114.576
36 2.71931 0.755079 1 7.68368 -54.1358 93.754
37 1.11931 0.955079 1 7.18947 -67.303 -115.025
38 1.31931 0.955079 1 7.20942 -75.2785 -99.9899
39 1.51931 0.955079 1 7.23483 -51.8318 140.828
40 1.71931 0.955079 1 7.26567 -50.5825 40.985
41 1.91931 0.955079 1 7.30186 -49.6684 -47.948
42 2.11931 0.955079 1 7.34332 -50.518 -149.617
43 2.31931 0.955079 1 7.38995 -56.7399 148.059
44 2.51931 0.955079 1 7.44168 -49.5853 48.9252
45 2.71931 0.955079 1 7.49838 -51.9513 -133.522
46 1.11931 1.15508 1 6.99681 -63.8707 123.339
47 1.31931 1.15508 1 7.0173 -68.436 -100.469
48 1.51931 1.15508 1 7.04341 -50.9481 -31.7719
49 1.71931 1.15508 1 7.07508 -51.0575 -127.474
50 1.91931 1.15508 1 7.11224 -50.2317 136.701
51 2.11931 1.15508 1 7.15479 -48.3459 51.088
52 2.31931 1.15508 1 7.20265 -63.1999 4.81469
53 2.51931 1.15508 1 7.25571 -50.6762 -136.854
54 2.71931 1.15508 1 7.31386 -54.841 37.802
55 1.11931 1.35508 1 6.80457 -66.8281 8.6233
56 1.31931 1.35508 1 6.82563 -72.4113 114.449
57 1.51931 1.35508 1 6.85247 -53.8608 166.391
58 1.71931 1.35508 1 6.88502 -52.4823 62.1174
59 1.91931 1.35508 1 6.9232 -51.0988 -39.8308
60 2.11931 1.35508 1 6.96691 -47.8613 -140.723
61 2.31931 1.35508 1 7.01605 -49.5553 -137.086
62 2.51931 1.35508 1 7.07051 -52.0256 21.0325
63 2.71931 1.35508 1 7.13017 -55.8642 -156.138
64 1.11931 1.55508 1 6.61278 -65.3266 -63.0115
65 1.31931 1.55508 1 6.63446 -53.3354 76.6525
66 1.51931 1.55508 1 6.66207 -53.3558 -14.2933
67 1.71931 1.55508 1 6.69555 -55.2609 -108.92
68 1.91931 1.55508 1 6.7348 -52.0628 146.594
69 2.11931 1.55508 1 6.77972 -58.0838 157.314
70 2.31931 1.55508 1 6.83021 -50.597 35.236
71 2.51931 1.55508 1 6.88614 -53.4341 179.353
72 2.71931 1.55508 1 6.94738 -60.6642 -1.22696
73 1.11931 1.75508 1 6.4215 -83.4957 -118.862
74 1.31931 1.75508 1 6.44382 -51.8889 -96.4981
75 1.51931 1.75508 1 6.47225 -51.8913 -170.184
76 1.71931 1.75508 1 6.5067 -53.9512 92.482
77 1.91931 1.75508 1 6.54708 -51.867 23.1884
78 2.11931 1.75508 1 6.59329 -47.4838 18.9462
79 2.31931 1.75508 1 6.64519 -51.3157 -168.609
80 2.51931 1.75508 1 6.70267 -55.1288 -22.6615
81 2.71931 1.75508 1 6.76557 -62.3991 -109.759
