#Rx
# X(m), Y(m), Z(m), Distance(m), Power (dBm) Phase (deg)
1 6.94247 0.172736 1 8.32164 -76.8443 -86.9427
2 7.14247 0.172736 1 8.38408 -65.6405 170.282
3 7.34247 0.172736 1 8.4508 -70.9819 17.4552
4 7.54247 0.172736 1 8.52169 -77.9916 49.5104
5 7.74247 0.172736 1 8.59665 -68.8575 134.315
6 7.94247 0.172736 1 8.67558 -70.585 68.1702
7 8.14247 0.172736 1 8.75836 -77.7993 83.348
8 8.34247 0.172736 1 8.84488 -76.3753 73.7127
9 8.54247 0.172736 1 8.93505 -72.7576 48.3647
10 8.74247 0.172736 1 9.02875 -73.8415 -61.1588
11 6.94247 0.372736 1 8.13625 -70.7331 -140.889
12 7.14247 0.372736 1 8.2001 -64.9463 -25.774
13 7.34247 0.372736 1 8.26831 -76.7697 161.172
14 7.54247 0.372736 1 8.34075 -74.1727 108.078
15 7.74247 0.372736 1 8.41732 -66.1099 134.363
16 7.94247 0.372736 1 8.49791 -66.5882 152.015
17 8.14247 0.372736 1 8.5824 -72.2934 137.636
18 8.34247 0.372736 1 8.67069 -76.8959 82.7914
19 8.54247 0.372736 1 8.76265 -81.3624 173.205
20 8.74247 0.372736 1 8.85817 -80.4475 150.417
21 6.94247 0.572736 1 7.95157 -70.8518 29.0351
22 7.14247 0.572736 1 8.01689 -65.8957 173.23
23 7.34247 0.572736 1 8.08664 -75.4681 165.211
24 7.54247 0.572736 1 8.1607 -69.1826 -89.1908
25 7.74247 0.572736 1 8.23894 -67.5396 -115.894
26 7.94247 0.572736 1 8.32126 -77.6761 -92.0415
27 8.14247 0.572736 1 8.40753 -83.5312 174.236
28 8.34247 0.572736 1 8.49763 -72.1087 -179.897
29 8.54247 0.572736 1 8.59144 -80.5824 2.82299
30 8.74247 0.572736 1 8.68885 -70.2269 -117.436
31 6.94247 0.772736 1 7.76764 -73.5475 144.431
32 7.14247 0.772736 1 7.8345 -67.921 -19.0025
33 7.34247 0.772736 1 7.90586 -67.9791 -85.1139
34 7.54247 0.772736 1 7.98159 -68.002 -57.4184
35 7.74247 0.772736 1 8.06157 -72.7068 -60.0546
36 7.94247 0.772736 1 8.14568 -73.6633 -115.852
37 8.14247 0.772736 1 8.23379 -75.3784 -71.5889
38 8.34247 0.772736 1 8.32578 -68.6997 13.9973
39 8.54247 0.772736 1 8.4215 -74.5118 -76.6725
40 8.74247 0.772736 1 8.52085 -72.026 -175.497
41 6.94247 0.972736 1 7.58453 -65.9651 -57.4302
42 7.14247 0.972736 1 7.65299 -76.6446 -54.8711
43 7.34247 0.972736 1 7.72603 -67.4144 8.3154
44 7.54247 0.972736 1 7.8035 -68.6432 37.8567
45 7.74247 0.972736 1 7.88529 -79.3365 45.9798
46 7.94247 0.972736 1 7.97126 -74.6158 -0.623197
47 8.14247 0.972736 1 8.06128 -76.8282 91.1129
48 8.34247 0.972736 1 8.15521 -75.974 -131.543
49 8.54247 0.972736 1 8.25291 -71.4019 13.5646
50 8.74247 0.972736 1 8.35427 -71.4716 -70.3788
51 6.94247 1.17274 1 7.40229 -62.7276 86.1571
52 7.14247 1.17274 1 7.47243 -65.5484 83.8454
53 7.34247 1.17274 1 7.54721 -73.6814 9.42135
54 7.54247 1.17274 1 7.6265 -90.681 -162.212
55 7.74247 1.17274 1 7.71017 -73.3823 26.458
56 7.94247 1.17274 1 7.79807 -74.3405 159.993
57 8.14247 1.17274 1 7.89006 -74.6312 114.227
58 8.34247 1.17274 1 7.986 -69.5773 82.6136
59 8.54247 1.17274 1 8.08576 -72.9232 0.113012
60 8.74247 1.17274 1 8.18918 -74.0363 -98.0929
61 6.94247 1.37274 1 7.221 -72.306 -112.83
62 7.14247 1.37274 1 7.29287 -78.8087 134.416
63 7.34247 1.37274 1 7.36948 -73.9507 -178.376
64 7.54247 1.37274 1 7.45066 -74.4718 160.782
65 7.74247 1.37274 1 7.53628 -71.4621 -137.892
66 7.94247 1.37274 1 7.62619 -81.8029 -90.872
67 8.14247 1.37274 1 7.72023 -83.1228 44.4249
68 8.34247 1.37274 1 7.81825 -76.9421 18.2608
69 8.54247 1.37274 1 7.92012 -73.8739 -1.53454
70 8.74247 1.37274 1 8.02568 -74.9513 161.783
71 6.94247 1.57274 1 7.04072 -64.155 138.929
72 7.14247 1.57274 1 7.11441 -69.8283 -151.313
73 7.34247 1.57274 1 7.19292 -70.7398 -64.8374
74 7.54247 1.57274 1 7.27607 -79.3319 -12.4295
75 7.74247 1.57274 1 7.36372 -75.7301 -52.3849
76 7.94247 1.57274 1 7.45571 -71.829 -147.36
77 8.14247 1.57274 1 7.55187 -69.5557 178.766
78 8.34247 1.57274 1 7.65206 -79.9378 -117.938
79 8.54247 1.57274 1 7.7561 -76.5753 -49.3906
80 8.74247 1.57274 1 7.86386 -74.7932 -44.5555
81 6.94247 1.77274 1 6.86153 -60.1226 -49.4894
82 7.14247 1.77274 1 6.93713 -66.444 54.1057
83 7.34247 1.77274 1 7.01761 -74.9553 -172.467
84 7.54247 1.77274 1 7.10282 -72.2312 -63.9506
85 7.74247 1.77274 1 7.19258 -72.9736 -41.5077
86 7.94247 1.77274 1 7.28673 -75.6138 101.997
87 8.14247 1.77274 1 7.3851 -75.1662 157.683
88 8.34247 1.77274 1 7.48751 -83.861 161.32
89 8.54247 1.77274 1 7.59381 -73.7185 -120.833
90 8.74247 1.77274 1 7.70384 -76.4576 99.6024
