#Rx
# X(m), Y(m), Z(m), Distance(m), Power (dBm) Phase (deg)
1 2.05257 4.1024 1 6.39151 -56.8145 -6.38535
2 2.25257 4.1024 1 6.24149 -52.2594 15.9992
3 2.45257 4.1024 1 6.09435 -46.904 96.5578
4 2.65257 4.1024 1 5.9503 -52.7573 152.857
5 2.85257 4.1024 1 5.80956 -47.7948 -161.304
6 3.05257 4.1024 1 5.67238 -55.7742 -116.177
7 3.25257 4.1024 1 5.53902 -47.5915 -114.457
8 3.45257 4.1024 1 5.40978 -54.063 -58.1743
9 3.65257 4.1024 1 5.28494 -53.4041 -94.3173
10 3.85257 4.1024 1 5.16483 -53.1407 -57.8744
11 2.05257 4.3024 1 6.27564 -51.9677 -70.7879
12 2.25257 4.3024 1 6.12279 -50.4709 30.2228
13 2.45257 4.3024 1 5.97272 -51.5061 74.28
14 2.65257 4.3024 1 5.82566 -46.2781 142.105
15 2.85257 4.3024 1 5.68184 -50.4606 -149.31
16 3.05257 4.3024 1 5.54149 -47.8987 -134.256
17 3.25257 4.3024 1 5.40491 -50.2253 -79.6596
18 3.45257 4.3024 1 5.27238 -52.7425 -49.6689
19 3.65257 4.3024 1 5.14421 -52.1933 -33.1479
20 3.85257 4.3024 1 5.02074 -52.5719 -17.1378
21 2.05257 4.5024 1 6.16408 -52.1342 -102.126
22 2.25257 4.5024 1 6.00839 -48.8987 -25.1255
23 2.45257 4.5024 1 5.8554 -48.8054 58.4902
24 2.65257 4.5024 1 5.70531 -53.975 125.291
25 2.85257 4.5024 1 5.55837 -48.4 171.718
26 3.05257 4.5024 1 5.41483 -47.2541 -119.155
27 3.25257 4.5024 1 5.27497 -54.937 -66.6593
28 3.45257 4.5024 1 5.13909 -48.8514 -41.6893
29 3.65257 4.5024 1 5.00751 -52.4916 -2.04182
30 3.85257 4.5024 1 4.88058 -47.8093 -3.9666
31 2.05257 4.7024 1 6.05708 -50.7959 156.187
32 2.25257 4.7024 1 5.89857 -51.1956 -64.5966
33 2.45257 4.7024 1 5.74265 -50.5425 29.9298
34 2.65257 4.7024 1 5.58953 -50.4967 27.0245
35 2.85257 4.7024 1 5.43947 -49.661 145.879
36 3.05257 4.7024 1 5.2927 -51.7369 -122.674
37 3.25257 4.7024 1 5.14953 -48.056 -80.795
38 3.45257 4.7024 1 5.01024 -48.6264 -12.6675
39 3.65257 4.7024 1 4.87519 -47.7743 -10.2061
40 3.85257 4.7024 1 4.74472 -55.7586 42.3861
41 2.05257 4.9024 1 5.95487 -54.5129 160.641
42 2.25257 4.9024 1 5.79356 -65.4381 178.925
43 2.45257 4.9024 1 5.63474 -47.8449 -52.4179
44 2.65257 4.9024 1 5.47861 -58.7674 140.876
45 2.85257 4.9024 1 5.32542 -69.1802 102.787
46 3.05257 4.9024 1 5.17542 -48.3727 178.991
47 3.25257 4.9024 1 5.02891 -46.4489 -65.1855
48 3.45257 4.9024 1 4.88618 -49.7413 -46.9029
49 3.65257 4.9024 1 4.7476 -48.2274 0.146876
50 3.85257 4.9024 1 4.61353 -50.9964 16.8804
51 2.05257 5.1024 1 5.85771 -49.0351 26.766
52 2.25257 5.1024 1 5.69365 -48.4118 -170.088
53 2.45257 5.1024 1 5.53196 -57.9535 -30.7521
54 2.65257 5.1024 1 5.37284 -49.5337 -147.81
55 2.85257 5.1024 1 5.21655 -62.8721 1.0921
56 3.05257 5.1024 1 5.06332 -50.5082 -37.3122
57 3.25257 5.1024 1 4.91347 -49.6413 -176.173
58 3.45257 5.1024 1 4.76729 -46.1105 -61.4176
59 3.65257 5.1024 1 4.62515 -49.9978 3.26916
60 3.85257 5.1024 1 4.48741 -51.1086 38.8235
61 2.05257 5.3024 1 5.76585 -63.3502 -50.2261
62 2.25257 5.3024 1 5.5991 -54.6108 67.8205
63 2.45257 5.3024 1 5.43459 -49.1573 -170.368
64 2.65257 5.3024 1 5.27254 -52.748 64.4199
65 2.85257 5.3024 1 5.11318 -49.8137 -155.782
66 3.05257 5.3024 1 4.95677 -51.2062 -19.891
67 3.25257 5.3024 1 4.80359 -58.2147 11.4462
68 3.45257 5.3024 1 4.65396 -67.1327 103.117
69 3.65257 5.3024 1 4.50824 -51.1091 -43.5613
70 3.85257 5.3024 1 4.36683 -47.4918 30.9277
71 2.05257 5.5024 1 5.67955 -56.4672 46.3878
72 2.25257 5.5024 1 5.51019 -57.4204 -77.491
73 2.45257 5.5024 1 5.34295 -54.0144 92.3154
74 2.65257 5.5024 1 5.17803 -55.4379 36.589
75 2.85257 5.5024 1 5.01567 -61.156 76.7617
76 3.05257 5.5024 1 4.85611 -53.5879 -174.099
77 3.25257 5.5024 1 4.69965 -51.7969 -17.685
78 3.45257 5.5024 1 4.54661 -53.2917 57.73
79 3.65257 5.5024 1 4.39733 -52.3453 -46.7402
80 3.85257 5.5024 1 4.25223 -55.8301 -16.3218
81 2.05257 5.7024 1 5.59907 -62.438 -83.2252
82 2.25257 5.7024 1 5.4272 -57.7964 66.9852
83 2.45257 5.7024 1 5.25731 -50.0396 -135.929
84 2.65257 5.7024 1 5.08962 -57.7851 -142.33
85 2.85257 5.7024 1 4.92435 -54.3784 -10.3525
86 3.05257 5.7024 1 4.76173 -58.5739 -96.4854
87 3.25257 5.7024 1 4.60206 -69.2169 -82.687
88 3.45257 5.7024 1 4.44566 -48.1277 -32.9323
89 3.65257 5.7024 1 4.29288 -50.9818 57.5273
90 3.85257 5.7024 1 4.14412 -55.3719 89.5872
91 2.05257 5.9024 1 5.52466 -56.9534 -142.207
92 2.25257 5.9024 1 5.35039 -60.5256 -49.1051
93 2.45257 5.9024 1 5.178 -54.9463 53.7495
94 2.65257 5.9024 1 5.00765 -54.327 93.4748
95 2.85257 5.9024 1 4.83957 -53.1456 -160.399
96 3.05257 5.9024 1 4.67401 -64.1487 35.8708
97 3.25257 5.9024 1 4.51124 -54.3091 142.722
98 3.45257 5.9024 1 4.35157 -53.3151 -133.073
99 3.65257 5.9024 1 4.19536 -55.5715 -35.1372
100 3.85257 5.9024 1 4.04302 -49.7603 61.2017
101 2.05257 6.1024 1 5.45656 -50.6082 36.2119
102 2.25257 6.1024 1 5.28006 -47.9213 -177.196
103 2.45257 6.1024 1 5.10528 -56.8779 -48.2858
104 2.65257 6.1024 1 4.93242 -48.5367 -57.8864
105 2.85257 6.1024 1 4.76169 -51.665 49.5962
106 3.05257 6.1024 1 4.59332 -52.4463 -119.537
107 3.25257 6.1024 1 4.42759 -55.7216 -58.6438
108 3.45257 6.1024 1 4.26479 -52.4965 64.3709
109 3.65257 6.1024 1 4.10528 -51.8363 -105.467
110 3.85257 6.1024 1 3.94946 -52.7448 -33.1433
111 2.05257 6.3024 1 5.39503 -47.4706 -139.027
112 2.25257 6.3024 1 5.21644 -47.3333 -3.14174
113 2.45257 6.3024 1 5.03946 -49.0502 127.271
114 2.65257 6.3024 1 4.86427 -47.418 150.123
115 2.85257 6.3024 1 4.69106 -57.3449 -60.5045
116 3.05257 6.3024 1 4.52006 -49.3869 42.2412
117 3.25257 6.3024 1 4.35153 -46.2444 -173.989
118 3.45257 6.3024 1 4.18578 -66.8092 119.19
119 3.65257 6.3024 1 4.02314 -56.8561 40.1563
120 3.85257 6.3024 1 3.86401 -49.2597 -175.569
121 2.05257 6.5024 1 5.34028 -44.7879 29.6064
122 2.25257 6.5024 1 5.1598 -44.6434 170.145
123 2.45257 6.5024 1 4.98081 -49.7294 -18.9329
124 2.65257 6.5024 1 4.80347 -46.1345 -37.8631
125 2.85257 6.5024 1 4.62799 -46.7108 133.719
126 3.05257 6.5024 1 4.45457 -45.6767 -84.4452
127 3.25257 6.5024 1 4.28347 -47.319 4.89547
128 3.45257 6.5024 1 4.11497 -60.2151 113.913
129 3.65257 6.5024 1 3.94942 -50.8095 -58.2838
130 3.85257 6.5024 1 3.78719 -54.2775 26.4583
131 2.05257 6.7024 1 5.29253 -45.5334 158.165
132 2.25257 6.7024 1 5.11036 -45.2991 -30.0559
133 2.45257 6.7024 1 4.92958 -44.6267 138.84
134 2.65257 6.7024 1 4.75033 -48.1005 125.572
135 2.85257 6.7024 1 4.57281 -44.3051 -67.9643
136 3.05257 6.7024 1 4.39721 -41.8536 78.1346
137 3.25257 6.7024 1 4.22379 -44.0111 -159.292
138 3.45257 6.7024 1 4.05281 -56.6995 -9.5688
139 3.65257 6.7024 1 3.88461 -49.7177 103.527
140 3.85257 6.7024 1 3.71956 -49.1183 -143.901
141 2.05257 6.9024 1 5.25197 -46.0469 -47.4384
142 2.25257 6.9024 1 5.06834 -45.5443 131.973
143 2.45257 6.9024 1 4.886 -44.4816 -59.6754
144 2.65257 6.9024 1 4.70509 -56.1532 58.5921
145 2.85257 6.9024 1 4.5258 -60.9503 -147.3
146 3.05257 6.9024 1 4.3483 -63.8587 -3.0421
147 3.25257 6.9024 1 4.17285 -47.5427 -2.33455
148 3.45257 6.9024 1 3.99969 -48.0934 132.469
149 3.65257 6.9024 1 3.82916 -47.8382 -107.549
150 3.85257 6.9024 1 3.66161 -47.7822 -7.86818
151 2.05257 7.1024 1 5.21876 -46.7929 85.077
152 2.25257 7.1024 1 5.03392 -44.8492 -119.473
153 2.45257 7.1024 1 4.85029 -44.7901 30.7166
154 2.65257 7.1024 1 4.668 -46.9555 -167.226
155 2.85257 7.1024 1 4.48722 -44.1487 0.785155
156 3.05257 7.1024 1 4.30813 -52.4364 -179.073
157 3.25257 7.1024 1 4.13097 -62.515 -103.859
158 3.45257 7.1024 1 3.95599 -59.7275 48.9688
159 3.65257 7.1024 1 3.78348 -54.7064 178.408
160 3.85257 7.1024 1 3.61381 -53.9401 160.3
161 2.05257 7.3024 1 5.19305 -48.7775 144.198
162 2.25257 7.3024 1 5.00726 -47.5007 -52.7771
163 2.45257 7.3024 1 4.82261 -45.6814 121.611
164 2.65257 7.3024 1 4.63923 -48.095 -75.2334
165 2.85257 7.3024 1 4.45728 -45.9312 104.954
166 3.05257 7.3024 1 4.27695 -43.9738 -111.476
167 3.25257 7.3024 1 4.09844 -47.1365 51.5832
168 3.45257 7.3024 1 3.922 -47.3603 -141.317
169 3.65257 7.3024 1 3.74793 -48.2868 -16.0686
170 3.85257 7.3024 1 3.57658 -49.4949 118.977
171 2.05257 7.5024 1 5.17494 -50.0466 165.134
172 2.25257 7.5024 1 4.98848 -47.0931 -2.85504
173 2.45257 7.5024 1 4.80311 -46.2461 175.987
174 2.65257 7.5024 1 4.61895 -50.4355 12.7849
175 2.85257 7.5024 1 4.43618 -50.3542 -178.537
176 3.05257 7.5024 1 4.25495 -48.8396 -41.136
177 3.25257 7.5024 1 4.07547 -52.6163 94.7653
178 3.45257 7.5024 1 3.898 -55.0973 -101.874
179 3.65257 7.5024 1 3.72281 -50.2033 29.9174
180 3.85257 7.5024 1 3.55024 -50.2912 174.657
181 2.05257 7.7024 1 5.16452 -55.9252 -158.323
182 2.25257 7.7024 1 4.97767 -51.2996 23.871
183 2.45257 7.7024 1 4.79188 -49.1497 -152.164
184 2.65257 7.7024 1 4.60728 -54.5409 53.0757
185 2.85257 7.7024 1 4.42402 -52.5905 -131.767
186 3.05257 7.7024 1 4.24227 -51.6353 4.81253
187 3.25257 7.7024 1 4.06223 -57.0259 130.885
188 3.45257 7.7024 1 3.88415 -55.8147 -40.6128
189 3.65257 7.7024 1 3.70831 -52.3907 84.2857
190 3.85257 7.7024 1 3.53503 -50.6118 -119.757
