#Rx
# X(m), Y(m), Z(m), Distance(m), Power (dBm) Phase (deg)
1 9.79195 4.11542 1 4.64097 -46.6793 -55.4466
2 9.99195 4.11542 1 4.55602 -47.9922 -134.894
3 10.1919 4.11542 1 4.47839 -48.8929 67.8709
4 10.3919 4.11542 1 4.40848 -55.224 -141.658
5 10.5919 4.11542 1 4.34665 -44.6283 -14.0989
6 10.7919 4.11542 1 4.29326 -42.2722 152.241
7 10.9919 4.11542 1 4.24862 -39.123 -51.4995
8 11.1919 4.11542 1 4.21301 -41.0336 64.7996
9 11.3919 4.11542 1 4.18667 -42.0547 162.928
10 11.5919 4.11542 1 4.16976 -46.3978 -126.855
11 11.7919 4.11542 1 4.1624 -48.2549 -96.8482
12 9.79195 4.31542 1 4.4808 -43.3255 33.5029
13 9.99195 4.31542 1 4.39275 -49.745 -68.2091
14 10.1919 4.31542 1 4.31218 -52.589 -167.489
15 10.3919 4.31542 1 4.23953 -62.0306 30.0541
16 10.5919 4.31542 1 4.1752 -50.126 96.5349
17 10.7919 4.31542 1 4.11959 -48.0506 -73.7017
18 10.9919 4.31542 1 4.07305 -42.5888 116.332
19 11.1919 4.31542 1 4.03589 -41.9513 -121.049
20 11.3919 4.31542 1 4.00838 -43.656 -24.3454
21 11.5919 4.31542 1 3.99071 -46.007 43.4573
22 11.7919 4.31542 1 3.98303 -47.7712 88.5348
23 9.79195 4.51542 1 4.32394 -44.0531 135.32
24 9.99195 4.51542 1 4.23263 -46.6862 36.1503
25 10.1919 4.51542 1 4.14896 -49.8183 -57.7772
26 10.3919 4.51542 1 4.0734 -51.0778 153.054
27 10.5919 4.51542 1 4.0064 -56.8993 -115.511
28 10.7919 4.51542 1 3.94841 -46.1075 63.7376
29 10.9919 4.51542 1 3.89983 -44.5164 -108.802
30 11.1919 4.51542 1 3.861 -42.1615 22.9911
31 11.3919 4.51542 1 3.83224 -43.2551 124.04
32 11.5919 4.51542 1 3.81375 -46.8802 -166
33 11.7919 4.51542 1 3.80571 -48.9798 -141.731
34 9.79195 4.71542 1 4.17078 -47.3469 -140.476
35 9.99195 4.71542 1 4.07604 -46.4341 149.328
36 10.1919 4.71542 1 3.98908 -45.4606 24.9383
37 10.3919 4.71542 1 3.91043 -50.7113 -115.796
38 10.5919 4.71542 1 3.84059 -53.2785 5.55703
39 10.7919 4.71542 1 3.78006 -47.1638 169.181
40 10.9919 4.71542 1 3.72928 -49.1364 -31.9759
41 11.1919 4.71542 1 3.68867 -46.2104 144.854
42 11.3919 4.71542 1 3.65854 -44.6255 -84.268
43 11.5919 4.71542 1 3.63918 -49.8959 6.70037
44 11.7919 4.71542 1 3.63075 -53.4384 -1.27093
45 9.79195 4.91542 1 4.02173 -49.3136 -86.9386
46 9.99195 4.91542 1 3.92339 -51.1182 -122.945
47 10.1919 4.91542 1 3.83298 -45.7694 136.957
48 10.3919 4.91542 1 3.75105 -49.8482 -19.3767
49 10.5919 4.91542 1 3.67819 -59.4408 -98.3076
50 10.7919 4.91542 1 3.61494 -53.3345 -49.0633
51 10.9919 4.91542 1 3.56181 -48.5647 84.1242
52 11.1919 4.91542 1 3.51926 -47.0183 -94.3839
53 11.3919 4.91542 1 3.48767 -44.5788 50.7011
54 11.5919 4.91542 1 3.46736 -47.6051 159.145
55 11.7919 4.91542 1 3.45851 -55.2967 169.396
56 9.79195 5.11542 1 3.87727 -46.2671 -27.1429
57 9.99195 5.11542 1 3.77517 -53.3456 -70.4969
58 10.1919 5.11542 1 3.68112 -48.3861 -111.661
59 10.3919 5.11542 1 3.59574 -49.3403 107.972
60 10.5919 5.11542 1 3.51966 -56.1169 4.12094
61 10.7919 5.11542 1 3.45351 -50.8354 108.063
62 10.9919 5.11542 1 3.39785 -46.608 -120.164
63 11.1919 5.11542 1 3.35322 -42.9511 33.7115
64 11.3919 5.11542 1 3.32006 -43.1893 156.191
65 11.5919 5.11542 1 3.29871 -46.3319 -104.952
66 11.7919 5.11542 1 3.2894 -51.4944 -81.6769
67 9.79195 5.31542 1 3.73793 -46.3112 40.537
68 9.99195 5.31542 1 3.63192 -50.4893 -2.75491
69 10.1919 5.31542 1 3.53405 -46.9482 -68.9326
70 10.3919 5.31542 1 3.44503 -49.0998 -163.614
71 10.5919 5.31542 1 3.36555 -48.0123 35.8092
72 10.7919 5.31542 1 3.29631 -52.2442 -126.793
73 10.9919 5.31542 1 3.23795 -45.4994 -7.00256
74 11.1919 5.31542 1 3.19108 -42.8271 146.239
75 11.3919 5.31542 1 3.15622 -42.3002 -95.6508
76 11.5919 5.31542 1 3.13375 -43.9414 -6.51883
77 11.7919 5.31542 1 3.12396 -47.5426 45.8293
78 9.79195 5.51542 1 3.60431 -48.9044 115.941
79 9.99195 5.51542 1 3.49425 -45.9014 35.1254
80 10.1919 5.51542 1 3.39241 -44.6525 -3.26601
81 10.3919 5.51542 1 3.29957 -44.9577 -103.6
82 10.5919 5.51542 1 3.2165 -46.9082 131.558
83 10.7919 5.51542 1 3.14397 -51.8555 -3.6927
84 10.9919 5.51542 1 3.08273 -50.3438 96.2578
85 11.1919 5.51542 1 3.03347 -45.1972 -113.368
86 11.3919 5.51542 1 2.99677 -41.2778 12.7948
87 11.5919 5.51542 1 2.9731 -41.7685 99.4602
88 11.7919 5.51542 1 2.96277 -44.647 157.83
89 9.79195 5.71542 1 3.47707 -47.236 76.2553
90 9.99195 5.71542 1 3.36284 -42.8452 77.0964
91 10.1919 5.71542 1 3.2569 -42.7101 -11.4544
92 10.3919 5.71542 1 3.16008 -46.2348 -55.5144
93 10.5919 5.71542 1 3.07324 -45.567 -171.557
94 10.7919 5.71542 1 2.99724 -52.0819 42.4608
95 10.9919 5.71542 1 2.93294 -48.4856 153.627
96 11.1919 5.71542 1 2.88112 -41.7897 -80.3658
97 11.3919 5.71542 1 2.84246 -41.8736 52.2745
98 11.5919 5.71542 1 2.81749 -43.7287 152.292
99 11.7919 5.71542 1 2.80659 -48.4649 -153.263
100 9.79195 5.91542 1 3.35692 -43.2096 84.7149
101 9.99195 5.91542 1 3.23846 -45.7414 32.3714
102 10.1919 5.91542 1 3.12831 -42.3214 26.8655
103 10.3919 5.91542 1 3.02738 -41.2126 -59.4803
104 10.5919 5.91542 1 2.93661 -51.2227 -167.854
105 10.7919 5.91542 1 2.85699 -52.2664 32.152
106 10.9919 5.91542 1 2.78946 -49.2589 122.204
107 11.1919 5.91542 1 2.73492 -45.6062 -30.9824
108 11.3919 5.91542 1 2.69416 -42.8771 107.99
109 11.5919 5.91542 1 2.6678 -43.1783 -150.234
110 11.7919 5.91542 1 2.65629 -46.5844 -84.3265
111 9.79195 6.11542 1 3.24466 -46.1035 35.9707
112 9.99195 6.11542 1 3.12194 -43.9845 42.9624
113 10.1919 6.11542 1 3.00753 -42.3746 -14.49
114 10.3919 6.11542 1 2.9024 -42.9134 -62.7113
115 10.5919 6.11542 1 2.8076 -44.7207 -177.611
116 10.7919 6.11542 1 2.72421 -54.0838 138.269
117 10.9919 6.11542 1 2.6533 -57.044 -172.437
118 11.1919 6.11542 1 2.5959 -47.4142 -25.4096
119 11.3919 6.11542 1 2.55292 -44.7263 140.454
120 11.5919 6.11542 1 2.52509 -44.5561 -115.223
121 11.7919 6.11542 1 2.51292 -47.0982 -51.0409
122 9.79195 6.31542 1 3.14114 -48.1544 -56.1785
123 9.99195 6.31542 1 3.01421 -41.5605 -38.514
124 10.1919 6.31542 1 2.89554 -45.6248 -72.5508
125 10.3919 6.31542 1 2.78619 -42.819 -105.223
126 10.5919 6.31542 1 2.68729 -52.9654 178.484
127 10.7919 6.31542 1 2.60004 -52.1661 42.5434
128 10.9919 6.31542 1 2.52565 -50.8813 133.284
129 11.1919 6.31542 1 2.46528 -45.965 -31.7589
130 11.3919 6.31542 1 2.41998 -48.1771 118.345
131 11.5919 6.31542 1 2.39061 -50.0464 -85.6132
132 11.7919 6.31542 1 2.37775 -51.3773 28.9048
133 9.79195 6.51542 1 3.04724 -54.0497 -116.093
134 9.99195 6.51542 1 2.91623 -44.0029 -144.325
135 10.1919 6.51542 1 2.7934 -44.6153 -123.654
136 10.3919 6.51542 1 2.67988 -49.2291 160.575
137 10.5919 6.51542 1 2.57691 -46.2442 150.907
138 10.7919 6.51542 1 2.48579 -53.0878 14.9742
139 10.9919 6.51542 1 2.40787 -61.1597 -58.4373
140 11.1919 6.51542 1 2.34447 -58.3988 42.9309
141 11.3919 6.51542 1 2.29679 -47.1244 177.971
142 11.5919 6.51542 1 2.26582 -48.3457 -56.9054
143 11.7919 6.51542 1 2.25225 -53.7319 12.6757
144 9.79195 6.71542 1 2.96388 -48.0327 71.6155
145 9.99195 6.71542 1 2.82901 -48.2585 62.8871
146 10.1919 6.71542 1 2.70222 -45.646 123.816
147 10.3919 6.71542 1 2.5847 -50.0254 107.325
148 10.5919 6.71542 1 2.47778 -49.5188 -11.9475
149 10.7919 6.71542 1 2.38287 -54.6914 45.5194
150 10.9919 6.71542 1 2.30147 -49.6336 -143.055
151 11.1919 6.71542 1 2.23505 -53.1241 10.0097
152 11.3919 6.71542 1 2.18498 -51.0284 -154.627
153 11.5919 6.71542 1 2.15241 -44.7024 -35.6376
154 11.7919 6.71542 1 2.13812 -46.5213 43.4803
155 9.79195 6.91542 1 2.89198 -47.5648 -105.487
156 9.99195 6.91542 1 2.75358 -46.4955 -106.31
157 10.1919 6.91542 1 2.62315 -45.5093 -31.6281
158 10.3919 6.91542 1 2.50192 -51.6711 137.407
159 10.5919 6.91542 1 2.3913 -51.8264 41.7525
160 10.7919 6.91542 1 2.29281 -49.908 -115.306
161 10.9919 6.91542 1 2.2081 -52.8752 98.2782
162 11.1919 6.91542 1 2.13878 -50.3747 29.4068
163 11.3919 6.91542 1 2.0864 -45.726 135.003
164 11.5919 6.91542 1 2.05226 -47.0422 -130.174
165 11.7919 6.91542 1 2.03727 -48.1331 -71.6676
166 9.79195 7.11542 1 2.83239 -44.2296 68.3903
167 9.99195 7.11542 1 2.69094 -46.5004 101.045
168 10.1919 7.11542 1 2.55731 -44.4857 119.823
169 10.3919 7.11542 1 2.4328 -54.9457 -63.4815
170 10.5919 7.11542 1 2.31888 -54.5443 103.732
171 10.7919 7.11542 1 2.21719 -55.767 158.412
172 10.9919 7.11542 1 2.12946 -50.4902 -12.7502
173 11.1919 7.11542 1 2.0575 -49.5888 -131.79
174 11.3919 7.11542 1 2.003 -46.7788 -45.7782
175 11.5919 7.11542 1 1.96741 -47.5541 84.5258
176 11.7919 7.11542 1 1.95177 -53.4602 -145.941
177 9.79195 7.31542 1 2.78592 -43.9173 -155.003
178 9.99195 7.31542 1 2.64198 -41.1445 -88.656
179 10.1919 7.31542 1 2.50574 -49.0277 -55.7109
180 10.3919 7.31542 1 2.37854 -69.0911 55.2968
181 10.5919 7.31542 1 2.26189 -52.9001 -41.444
182 10.7919 7.31542 1 2.15751 -47.988 -100.906
183 10.9919 7.31542 1 2.06725 -53.9879 86.9661
184 11.1919 7.31542 1 1.99304 -47.3499 52.5319
185 11.3919 7.31542 1 1.93673 -55.6079 150.401
186 11.5919 7.31542 1 1.8999 -63.798 -172.086
187 11.7919 7.31542 1 1.8837 -58.453 -83.2403
188 9.79195 7.51542 1 2.75323 -44.9879 -34.5515
189 9.99195 7.51542 1 2.60749 -42.1139 27.0088
190 10.1919 7.51542 1 2.46935 -48.9558 107.759
191 10.3919 7.51542 1 2.34016 -55.1176 -160.015
192 10.5919 7.51542 1 2.2215 -47.1302 85.0375
193 10.7919 7.51542 1 2.11513 -48.1662 53.2635
194 10.9919 7.51542 1 2.02298 -46.3477 -92.1461
195 11.1919 7.51542 1 1.94709 -48.0134 174.528
196 11.3919 7.51542 1 1.8894 -48.2617 -33.8145
197 11.5919 7.51542 1 1.85163 -55.576 71.6282
198 11.7919 7.51542 1 1.835 -63.9654 -96.5281
199 9.79195 7.71542 1 2.73481 -45.9395 67.4098
200 9.99195 7.71542 1 2.58803 -45.9751 121.294
201 10.1919 7.71542 1 2.44879 -53.9496 -116.396
202 10.3919 7.71542 1 2.31847 -54.3584 -91.1893
203 10.5919 7.71542 1 2.19863 -48.7233 -172.905
204 10.7919 7.71542 1 2.0911 -55.4307 154.634
205 10.9919 7.71542 1 1.99784 -44.9596 22.2063
206 11.1919 7.71542 1 1.92096 -60.1571 -120.612
207 11.3919 7.71542 1 1.86246 -51.2381 54.9939
208 11.5919 7.71542 1 1.82413 -63.8184 155.847
209 11.7919 7.71542 1 1.80725 -68.1525 -31.1152
