#Rx
# X(m), Y(m), Z(m), Distance(m), Power (dBm) Phase (deg)
1 5.1281 4.11579 1 7.98719 -63.5181 -41.1798
2 5.3281 4.11579 1 7.81998 -62.5307 154.95
3 5.5281 4.11579 1 7.65435 -66.62 -31.7936
4 5.7281 4.11579 1 7.4904 -64.1446 32.1629
5 5.9281 4.11579 1 7.32824 -57.1712 -158.901
6 6.1281 4.11579 1 7.16799 -63.7634 -79.4768
7 6.3281 4.11579 1 7.00978 -54.8221 -9.28656
8 6.5281 4.11579 1 6.85376 -57.0661 87.8639
9 6.7281 4.11579 1 6.70007 -53.3074 155.255
10 6.9281 4.11579 1 6.54889 -57.1721 -112.79
11 7.1281 4.11579 1 6.40039 -59.1852 -50.2115
12 7.3281 4.11579 1 6.25475 -62.5004 65.457
13 5.1281 4.31579 1 8.08784 -61.5754 105.109
14 5.3281 4.31579 1 7.92276 -59.4256 -104.04
15 5.5281 4.31579 1 7.75933 -65.414 75.7616
16 5.7281 4.31579 1 7.59764 -64.2936 138.4
17 5.9281 4.31579 1 7.43782 -56.0123 -131.689
18 6.1281 4.31579 1 7.27998 -54.6339 -66.1807
19 6.3281 4.31579 1 7.12426 -57.5554 31.1852
20 6.5281 4.31579 1 6.9708 -52.2018 92.9263
21 6.7281 4.31579 1 6.81975 -56.1453 -164.269
22 6.9281 4.31579 1 6.67128 -60.3989 -137.788
23 7.1281 4.31579 1 6.52556 -63.4414 -2.60079
24 7.3281 4.31579 1 6.38279 -65.2655 47.5088
25 5.1281 4.51579 1 8.19214 -61.1709 -169.397
26 5.3281 4.51579 1 8.02921 -61.9064 -4.50997
27 5.5281 4.51579 1 7.86799 -62.334 41.2584
28 5.7281 4.51579 1 7.70858 -59.8582 171.92
29 5.9281 4.51579 1 7.5511 -56.9169 -132.555
30 6.1281 4.51579 1 7.39568 -55.4369 -27.8567
31 6.3281 4.51579 1 7.24245 -53.9167 44.031
32 6.5281 4.51579 1 7.09155 -56.6433 132.73
33 6.7281 4.51579 1 6.94313 -61.343 172.545
34 6.9281 4.51579 1 6.79736 -63.8575 -96.7304
35 7.1281 4.51579 1 6.6544 -64.3691 -58.7745
36 7.3281 4.51579 1 6.51445 -54.2939 9.83958
37 5.1281 4.71579 1 8.29996 -61.6173 -85.4368
38 5.3281 4.71579 1 8.13918 -63.7194 34.8178
39 5.5281 4.71579 1 7.98018 -56.0644 86.5212
40 5.7281 4.71579 1 7.82306 -55.9186 166.197
41 5.9281 4.71579 1 7.66793 -56.1604 -94.5523
42 6.1281 4.71579 1 7.51493 -56.0472 -26.7568
43 6.3281 4.71579 1 7.36418 -57.2765 59.3387
44 6.5281 4.71579 1 7.21583 -61.0685 97.5547
45 6.7281 4.71579 1 7.07002 -60.7206 -179.261
46 6.9281 4.71579 1 6.92691 -66.9821 -120.481
47 7.1281 4.71579 1 6.78668 -53.2931 -64.0286
48 7.3281 4.71579 1 6.64952 -55.1522 -41.1876
49 5.1281 4.91579 1 8.41114 -62.3135 -61.9115
50 5.3281 4.91579 1 8.25253 -56.6175 1.56919
51 5.5281 4.91579 1 8.09576 -57.6325 116.131
52 5.7281 4.91579 1 7.94092 -54.126 -170.166
53 5.9281 4.91579 1 7.78815 -57.4141 -75.7261
54 6.1281 4.91579 1 7.63755 -57.1815 -19.0213
55 6.3281 4.91579 1 7.48927 -66.4589 38.9855
56 6.5281 4.91579 1 7.34344 -61.5964 112.215
57 6.7281 4.91579 1 7.20022 -62.8616 155.702
58 6.9281 4.91579 1 7.05976 -54.3398 -127.515
59 7.1281 4.91579 1 6.92222 -53.8166 -104.275
60 7.3281 4.91579 1 6.78779 -54.7344 -114.912
61 5.1281 5.11579 1 8.52557 -56.2304 -59.2084
62 5.3281 5.11579 1 8.36913 -55.636 38.4621
63 5.5281 5.11579 1 8.21458 -57.3533 115.59
64 5.7281 5.11579 1 8.06203 -56.6677 -127.833
65 5.9281 5.11579 1 7.91159 -57.1179 -113.633
66 6.1281 5.11579 1 7.76339 -64.5158 19.0404
67 6.3281 5.11579 1 7.61756 -59.0347 23.8521
68 6.5281 5.11579 1 7.47424 -63.545 99.6025
69 6.7281 5.11579 1 7.33357 -54.269 170.574
70 6.9281 5.11579 1 7.19571 -53.1215 -169.868
71 7.1281 5.11579 1 7.06082 -57.5292 152.037
72 7.3281 5.11579 1 6.92908 -56.5646 151.206
73 5.1281 5.31579 1 8.64311 -54.0629 -25.8443
74 5.3281 5.31579 1 8.48884 -58.1815 51.2528
75 5.5281 5.31579 1 8.33651 -55.4485 135.538
76 5.7281 5.31579 1 8.18623 -60.0211 155.81
77 5.9281 5.31579 1 8.03812 -61.2729 -83.5849
78 6.1281 5.31579 1 7.89229 -58.7071 -72.8805
79 6.3281 5.31579 1 7.74889 -61.6239 45.8976
80 6.5281 5.31579 1 7.60804 -54.4253 78.8116
81 6.7281 5.31579 1 7.46989 -54.061 120.935
82 6.9281 5.31579 1 7.33459 -61.5977 97.8844
83 7.1281 5.31579 1 7.20231 -55.5428 106.731
84 7.3281 5.31579 1 7.0732 -54.9784 76.7523
85 5.1281 5.51579 1 8.76364 -56.8103 3.57149
86 5.3281 5.51579 1 8.61153 -57.8609 49.9173
87 5.5281 5.51579 1 8.46141 -59.8311 124.547
88 5.7281 5.51579 1 8.31339 -60.623 167.925
89 5.9281 5.51579 1 8.16758 -63.6681 -125.111
90 6.1281 5.51579 1 8.02411 -58.6494 -58.6784
91 6.3281 5.51579 1 7.8831 -55.1557 0.548971
92 6.5281 5.51579 1 7.7447 -54.5898 66.7907
93 6.7281 5.51579 1 7.60903 -55.2685 17.8471
94 6.9281 5.51579 1 7.47625 -55.4422 21.5678
95 7.1281 5.51579 1 7.34651 -57.5563 -8.12533
96 7.3281 5.51579 1 7.21999 -52.1173 31.1645
97 5.1281 5.71579 1 8.88704 -61.523 -25.7061
98 5.3281 5.71579 1 8.73708 -59.1385 38.1509
99 5.5281 5.71579 1 8.58915 -61.7468 102.167
100 5.7281 5.71579 1 8.44337 -59.8595 148.73
101 5.9281 5.71579 1 8.29984 -59.8362 -133.715
102 6.1281 5.71579 1 8.1587 -54.0763 -62.3734
103 6.3281 5.71579 1 8.02006 -54.8517 -14.1173
104 6.5281 5.71579 1 7.88406 -56.8838 -65.8431
105 6.7281 5.71579 1 7.75083 -60.3033 -67.2546
106 6.9281 5.71579 1 7.62052 -57.5964 -67.5293
107 7.1281 5.71579 1 7.49328 -52.7984 -40.291
108 7.3281 5.71579 1 7.36928 -50.5366 -48.527
109 5.1281 5.91579 1 9.01319 -56.0948 -47.5693
110 5.3281 5.91579 1 8.86536 -61.9433 -12.3838
111 5.5281 5.91579 1 8.7196 -61.541 93.703
112 5.7281 5.91579 1 8.57604 -54.3863 145.594
113 5.9281 5.91579 1 8.43478 -57.5781 -148.635
114 6.1281 5.91579 1 8.29593 -55.1268 -81.412
115 6.3281 5.91579 1 8.15962 -54.1301 -123.308
116 6.5281 5.91579 1 8.02598 -58.4406 -143.434
117 6.7281 5.91579 1 7.89515 -56.5844 -151.868
118 6.9281 5.91579 1 7.76726 -54.8471 -112.838
119 7.1281 5.91579 1 7.64247 -50.3923 -118.845
120 7.3281 5.91579 1 7.52093 -50.1241 -126.965
121 5.1281 6.11579 1 9.14197 -60.1989 -41.9482
122 5.3281 6.11579 1 8.99625 -56.1309 -2.52763
123 5.5281 6.11579 1 8.85266 -57.9993 60.2461
124 5.7281 6.11579 1 8.71129 -56.8183 167.078
125 5.9281 6.11579 1 8.57225 -53.3945 -176.412
126 6.1281 6.11579 1 8.43567 -55.4535 150.809
127 6.3281 6.11579 1 8.30165 -59.6032 120.81
128 6.5281 6.11579 1 8.17034 -57.4104 149.119
129 6.7281 6.11579 1 8.04186 -54.7325 169.223
130 6.9281 6.11579 1 7.91634 -51.0352 161.213
131 7.1281 6.11579 1 7.79393 -52.9983 168.651
132 7.3281 6.11579 1 7.67479 -50.8207 173.32
133 5.1281 6.31579 1 9.27328 -62.7049 -87.1437
134 5.3281 6.31579 1 9.12966 -55.8668 11.8731
135 5.5281 6.31579 1 8.98819 -55.9362 57.0394
136 5.7281 6.31579 1 8.84899 -55.5347 99.565
137 5.9281 6.31579 1 8.71215 -59.6162 86.685
138 6.1281 6.31579 1 8.57779 -59.2558 67.4414
139 6.3281 6.31579 1 8.44604 -56.5645 86.0395
140 6.5281 6.31579 1 8.317 -53.4563 86.1902
141 6.7281 6.31579 1 8.19082 -52.5916 91.0944
142 6.9281 6.31579 1 8.06762 -52.5923 98.7507
143 7.1281 6.31579 1 7.94754 -50.2291 93.9113
144 7.3281 6.31579 1 7.83074 -49.4545 78.9991
145 5.1281 6.51579 1 9.407 -57.2305 -96.9214
146 5.3281 6.51579 1 9.26546 -61.8307 -10.8334
147 5.5281 6.51579 1 9.1261 -54.6991 36.4134
148 5.7281 6.51579 1 8.98903 -58.6544 13.4743
149 5.9281 6.51579 1 8.85436 -57.493 -0.00599997
150 6.1281 6.51579 1 8.72219 -55.9135 -5.27917
151 6.3281 6.51579 1 8.59265 -54.1995 4.30831
152 6.5281 6.51579 1 8.46585 -54.3877 16.6051
153 6.7281 6.51579 1 8.34191 -51.1984 29.961
154 6.9281 6.51579 1 8.22098 -50.6039 17.996
155 7.1281 6.51579 1 8.10318 -50.5865 8.48388
156 7.3281 6.51579 1 7.98865 -52.1529 -12.652
157 5.1281 6.71579 1 9.54305 -56.3221 -104.264
158 5.3281 6.71579 1 9.40355 -54.4976 -54.7923
159 5.5281 6.71579 1 9.26627 -56.7282 -0.808024
160 5.7281 6.71579 1 9.1313 -57.5059 -79.4933
161 5.9281 6.71579 1 8.99876 -55.3923 -84.441
162 6.1281 6.71579 1 8.86874 -57.3764 -68.2586
163 6.3281 6.71579 1 8.74137 -54.5555 -50.2835
164 6.5281 6.71579 1 8.61676 -51.443 -40.8476
165 6.7281 6.71579 1 8.49503 -50.5057 -56.2544
166 6.9281 6.71579 1 8.37631 -50.5278 -60.3719
167 7.1281 6.71579 1 8.26072 -51.6159 -76.4334
168 7.3281 6.71579 1 8.14841 -51.6072 -106.917
169 5.1281 6.91579 1 9.68131 -54.7728 -119.743
170 5.3281 6.91579 1 9.54383 -56.2024 -91.975
171 5.5281 6.91579 1 9.4086 -59.6892 -157.881
172 5.7281 6.91579 1 9.27571 -59.9889 -153.944
173 5.9281 6.91579 1 9.14526 -56.7381 -130.782
174 6.1281 6.91579 1 9.01735 -52.0924 -125.483
175 6.3281 6.91579 1 8.89211 -52.0503 -129.179
176 6.5281 6.91579 1 8.76964 -51.9452 -133.354
177 6.7281 6.91579 1 8.65006 -52.1782 -131.755
178 6.9281 6.91579 1 8.5335 -51.4721 -140.479
179 7.1281 6.91579 1 8.42007 -51.9036 -173.747
180 7.3281 6.91579 1 8.30991 -51.7799 155.661
181 5.1281 7.11579 1 9.8217 -57.2409 -161.321
182 5.3281 7.11579 1 9.68622 -58.2605 136.868
183 5.5281 7.11579 1 9.553 -54.7351 126.266
184 5.7281 7.11579 1 9.42214 -55.1601 126.293
185 5.9281 7.11579 1 9.29375 -55.7945 142.718
186 6.1281 7.11579 1 9.16792 -54.4519 160.156
187 6.3281 7.11579 1 9.04476 -52.147 165.985
188 6.5281 7.11579 1 8.92439 -51.481 162.672
189 6.7281 7.11579 1 8.80691 -50.9 151.785
190 6.9281 7.11579 1 8.69245 -50.5286 116.291
191 7.1281 7.11579 1 8.58112 -51.7625 79.4048
192 7.3281 7.11579 1 8.47305 -54.5665 40.5952
193 5.1281 7.31579 1 9.96413 -60.4354 30.3132
194 5.3281 7.31579 1 9.83061 -59.9886 44.6992
195 5.5281 7.31579 1 9.69937 -57.5082 60.0017
196 5.7281 7.31579 1 9.57052 -54.4511 85.8312
197 5.9281 7.31579 1 9.44414 -52.9221 87.0439
198 6.1281 7.31579 1 9.32034 -52.6969 85.4356
199 6.3281 7.31579 1 9.19923 -51.0737 87.6804
200 6.5281 7.31579 1 9.0809 -51.1549 73.5719
201 6.7281 7.31579 1 8.96547 -52.0713 40.9904
202 6.9281 7.31579 1 8.85306 -53.3571 16.2483
203 7.1281 7.31579 1 8.74378 -54.1257 -7.95488
204 7.3281 7.31579 1 8.63775 -53.8068 -56.9855
205 5.1281 7.51579 1 10.1085 -57.6266 -31.7954
206 5.3281 7.51579 1 9.97692 -55.5569 -33.4864
207 5.5281 7.51579 1 9.84763 -56.2493 -18.6122
208 5.7281 7.51579 1 9.72074 -54.242 2.56336
209 5.9281 7.51579 1 9.59634 -52.9558 3.71672
210 6.1281 7.51579 1 9.47454 -52.7513 6.69078
211 6.3281 7.51579 1 9.35542 -53.5427 -3.76715
212 6.5281 7.51579 1 9.23909 -54.249 -13.3278
213 6.7281 7.51579 1 9.12566 -53.1588 -35.3331
214 6.9281 7.51579 1 9.01525 -53.3178 -72.345
215 7.1281 7.51579 1 8.90796 -53.827 -112.877
216 7.3281 7.51579 1 8.8039 -53.8547 -171.54
217 5.1281 7.71579 1 10.2548 -54.9968 -100.911
218 5.3281 7.71579 1 10.1251 -55.4592 -88.6009
219 5.5281 7.71579 1 9.9977 -55.3969 -72.1788
220 5.7281 7.71579 1 9.87274 -53.4813 -70.9958
221 5.9281 7.71579 1 9.75028 -52.2381 -62.1929
222 6.1281 7.71579 1 9.63041 -51.4827 -66.3585
223 6.3281 7.71579 1 9.51325 -52.4112 -87.8384
224 6.5281 7.71579 1 9.39887 -51.7622 -114.075
225 6.7281 7.71579 1 9.2874 -52.9389 -141.876
226 6.9281 7.71579 1 9.17893 -53.4609 176.936
227 7.1281 7.71579 1 9.07357 -53.5598 119.987
228 7.3281 7.71579 1 8.97144 -54.8821 47.3461
