#Rx
# X(m), Y(m), Z(m), Distance(m), Power (dBm) Phase (deg)
1 2.05257 4.1024 1 8.03995 -53.2056 -27.8686
2 2.25257 4.1024 1 7.87256 -55.6949 90.8252
3 2.45257 4.1024 1 7.70673 -57.6296 174.673
4 2.65257 4.1024 1 7.54255 -54.0836 -82.2647
5 2.85257 4.1024 1 7.38014 -53.4756 22.6249
6 3.05257 4.1024 1 7.21962 -55.6089 124.594
7 3.25257 4.1024 1 7.06112 -57.2982 -162.538
8 3.45257 4.1024 1 6.90477 -56.0222 -101.404
9 3.65257 4.1024 1 6.75072 -55.9782 -4.63105
10 3.85257 4.1024 1 6.59914 -57.7625 70.4384
11 2.05257 4.3024 1 8.13928 -56.4576 27.1293
12 2.25257 4.3024 1 7.97397 -56.3116 116.184
13 2.45257 4.3024 1 7.81029 -53.3145 -134.867
14 2.65257 4.3024 1 7.64834 -55.1899 -15.4997
15 2.85257 4.3024 1 7.48823 -58.7765 71.4729
16 3.05257 4.3024 1 7.33007 -57.2502 123.999
17 3.25257 4.3024 1 7.17401 -56.9157 -152.249
18 3.45257 4.3024 1 7.02017 -55.7367 -57.71
19 3.65257 4.3024 1 6.86872 -53.5453 6.83614
20 3.85257 4.3024 1 6.7198 -60.7639 58.4905
21 2.05257 4.5024 1 8.24226 -56.7438 66.7776
22 2.25257 4.5024 1 8.07907 -54.3998 157.062
23 2.45257 4.5024 1 7.91756 -55.4185 -74.7633
24 2.65257 4.5024 1 7.75785 -57.8982 32.2234
25 2.85257 4.5024 1 7.60004 -59.6693 53.4104
26 3.05257 4.5024 1 7.44426 -55.9961 163.024
27 3.25257 4.5024 1 7.29064 -57.1936 -119.703
28 3.45257 4.5024 1 7.13932 -56.906 -78.8203
29 3.65257 4.5024 1 6.99044 -57.6112 19.2916
30 3.85257 4.5024 1 6.84417 -57.6146 71.8943
31 2.05257 4.7024 1 8.34877 -54.1311 109.415
32 2.25257 4.7024 1 8.1877 -57.3326 -138.791
33 2.45257 4.7024 1 8.02837 -62.5846 -70.443
34 2.65257 4.7024 1 7.87091 -57.5295 2.80903
35 2.85257 4.7024 1 7.71542 -54.8109 107.832
36 3.05257 4.7024 1 7.56201 -59.1534 -143.918
37 3.25257 4.7024 1 7.41084 -56.7404 -127.466
38 3.45257 4.7024 1 7.26202 -55.4106 -48.2931
39 3.65257 4.7024 1 7.11571 -58.4631 38.4579
40 3.85257 4.7024 1 6.97207 -56.4508 101.285
41 2.05257 4.9024 1 8.45866 -62.6655 129.22
42 2.25257 4.9024 1 8.29972 -57.9855 -138.427
43 2.45257 4.9024 1 8.14259 -56.2268 -50.3286
44 2.65257 4.9024 1 7.98738 -60.6629 33.3397
45 2.85257 4.9024 1 7.8342 -58.7982 143.099
46 3.05257 4.9024 1 7.68317 -55.5295 145.747
47 3.25257 4.9024 1 7.53442 -57.2415 -100.355
48 3.45257 4.9024 1 7.38809 -55.2598 -15.3791
49 3.65257 4.9024 1 7.24433 -54.7034 20.6461
50 3.85257 4.9024 1 7.10329 -60.1871 136.012
51 2.05257 5.1024 1 8.57181 -56.0642 155.445
52 2.25257 5.1024 1 8.41501 -58.5575 -112.225
53 2.45257 5.1024 1 8.26008 -59.7999 -22.0093
54 2.65257 5.1024 1 8.10711 -55.4866 15.4506
55 2.85257 5.1024 1 7.95624 -59.6547 94.3054
56 3.05257 5.1024 1 7.80757 -55.4333 -163.943
57 3.25257 5.1024 1 7.66124 -56.4355 -98.135
58 3.45257 5.1024 1 7.51738 -59.4654 -23.2431
59 3.65257 5.1024 1 7.37614 -57.335 53.6924
60 3.85257 5.1024 1 7.23767 -64.5894 74.2769
61 2.05257 5.3024 1 8.6881 -58.356 -174.278
62 2.25257 5.3024 1 8.53343 -58.9274 -101.632
63 2.45257 5.3024 1 8.38069 -57.1373 -44.5402
64 2.65257 5.3024 1 8.22997 -56.0358 37.9758
65 2.85257 5.3024 1 8.08138 -56.5442 105.075
66 3.05257 5.3024 1 7.93506 -57.3944 -149.076
67 3.25257 5.3024 1 7.79112 -56.4045 -89.3944
68 3.45257 5.3024 1 7.64971 -62.2938 -22.0672
69 3.65257 5.3024 1 7.51096 -61.6745 53.9174
70 3.85257 5.3024 1 7.37502 -59.7278 -3.59925
71 2.05257 5.5024 1 8.80739 -61.0481 -145.237
72 2.25257 5.5024 1 8.65485 -55.5844 -115.573
73 2.45257 5.5024 1 8.50429 -56.2562 -43.3503
74 2.65257 5.5024 1 8.3558 -57.3195 60.1117
75 2.85257 5.5024 1 8.20949 -55.2196 134.895
76 3.05257 5.5024 1 8.0655 -60.1885 178.879
77 3.25257 5.5024 1 7.92393 -62.7539 -82.8943
78 3.45257 5.5024 1 7.78493 -60.1901 -26.3224
79 3.65257 5.5024 1 7.64863 -61.1755 -68.2642
80 3.85257 5.5024 1 7.51518 -63.5158 -98.6237
81 2.05257 5.7024 1 8.92956 -56.3965 153.602
82 2.25257 5.7024 1 8.77915 -53.7498 -88.7833
83 2.45257 5.7024 1 8.63076 -57.3687 -19.0605
84 2.65257 5.7024 1 8.48448 -58.5348 54.3233
85 2.85257 5.7024 1 8.34043 -59.7 127.633
86 3.05257 5.7024 1 8.19873 -59.6871 -171.75
87 3.25257 5.7024 1 8.05951 -69.4732 -103.29
88 3.45257 5.7024 1 7.92288 -74.9498 -154.92
89 3.65257 5.7024 1 7.789 -66.0805 -164.716
90 3.85257 5.7024 1 7.658 -84.2111 128.987
91 2.05257 5.9024 1 9.05451 -53.7267 -172.356
92 2.25257 5.9024 1 8.90621 -61.0695 -58.5036
93 2.45257 5.9024 1 8.75997 -55.3221 -27.7943
94 2.65257 5.9024 1 8.61588 -58.7234 54.779
95 2.85257 5.9024 1 8.47407 -64.1593 94.0308
96 3.05257 5.9024 1 8.33464 -64.6405 -147.442
97 3.25257 5.9024 1 8.19773 -65.5876 177.305
98 3.45257 5.9024 1 8.06345 -63.7744 123.957
99 3.65257 5.9024 1 7.93193 -68.8614 68.3021
100 3.85257 5.9024 1 7.80333 -73.9389 -129.811
101 2.05257 6.1024 1 9.18211 -55.998 -144.531
102 2.25257 6.1024 1 9.03591 -58.7537 -120.976
103 2.45257 6.1024 1 8.8918 -56.5914 -8.10437
104 2.65257 6.1024 1 8.74988 -68.4309 12.3169
105 2.85257 6.1024 1 8.61028 -62.6037 115.369
106 3.05257 6.1024 1 8.47309 -66.5479 -155.175
107 3.25257 6.1024 1 8.33845 -59.8154 84.7388
108 3.45257 6.1024 1 8.20647 -67.892 21.4912
109 3.65257 6.1024 1 8.07729 -80.2198 -119.123
110 3.85257 6.1024 1 7.95104 -71.5292 100.146
111 2.05257 6.3024 1 9.31226 -59.0716 -154.497
112 2.25257 6.3024 1 9.16813 -55.8004 -105.249
113 2.45257 6.3024 1 9.02613 -86.6607 -1.32646
114 2.65257 6.3024 1 8.88637 -61.759 13.9468
115 2.85257 6.3024 1 8.74894 -76.7247 -112.02
116 3.05257 6.3024 1 8.61396 -58.5989 -6.87229
117 3.25257 6.3024 1 8.48156 -63.2071 -104.264
118 3.45257 6.3024 1 8.35184 -68.6243 63.0881
119 3.65257 6.3024 1 8.22494 -69.7267 -57.8789
120 3.85257 6.3024 1 8.10099 -82.2958 -63.3852
121 2.05257 6.5024 1 9.44486 -60.8907 -175.447
122 2.25257 6.5024 1 9.30278 -62.2802 -98.9624
123 2.45257 6.5024 1 9.16287 -64.746 -78.7328
124 2.65257 6.5024 1 9.02522 -74.4326 56.5702
125 2.85257 6.5024 1 8.88994 -61.579 -51.8338
126 3.05257 6.5024 1 8.75714 -75.7965 154.272
127 3.25257 6.5024 1 8.62693 -63.7656 -49.9682
128 3.45257 6.5024 1 8.49943 -64.2148 179.766
129 3.65257 6.5024 1 8.37477 -65.6968 9.44825
130 3.85257 6.5024 1 8.25307 -72.6266 -107.773
131 2.05257 6.7024 1 9.57979 -65.4323 163.293
132 2.25257 6.7024 1 9.43974 -67.7706 -107.704
133 2.45257 6.7024 1 9.30189 -68.7403 -113.412
134 2.65257 6.7024 1 9.16633 -63.5671 -141.448
135 2.85257 6.7024 1 9.03316 -66.0085 -154.926
136 3.05257 6.7024 1 8.9025 -67.6114 167.626
137 3.25257 6.7024 1 8.77444 -64.2558 53.8428
138 3.45257 6.7024 1 8.64912 -60.9125 -93.8227
139 3.65257 6.7024 1 8.52665 -60.8905 133.301
140 3.85257 6.7024 1 8.40715 -65.6081 -12.894
141 2.05257 6.9024 1 9.71696 -67.7398 151.021
142 2.25257 6.9024 1 9.57892 -70.859 178.484
143 2.45257 6.9024 1 9.4431 -66.0551 145.822
144 2.65257 6.9024 1 9.3096 -65.2451 132.759
145 2.85257 6.9024 1 9.17851 -70.5507 81.7141
146 3.05257 6.9024 1 9.04994 -82.6866 53.2655
147 3.25257 6.9024 1 8.92401 -70.1237 146.621
148 3.45257 6.9024 1 8.80082 -65.4708 29.3807
149 3.65257 6.9024 1 8.68048 -63.5196 -125.367
150 3.85257 6.9024 1 8.56313 -62.4894 93.5825
151 2.05257 7.1024 1 9.85629 -81.9161 25.0151
152 2.25257 7.1024 1 9.72023 -64.5134 99.6724
153 2.45257 7.1024 1 9.58641 -61.6405 60.0335
154 2.65257 7.1024 1 9.45493 -69.175 -12.863
155 2.85257 7.1024 1 9.32588 -88.5095 -138.371
156 3.05257 7.1024 1 9.19938 -77.1684 63.7032
157 3.25257 7.1024 1 9.07551 -74.2203 21.0307
158 3.45257 7.1024 1 8.95441 -74.764 -34.0053
159 3.65257 7.1024 1 8.83617 -74.2563 -11.8222
160 3.85257 7.1024 1 8.72091 -67.7528 -178.568
161 2.05257 7.3024 1 9.99767 -63.3718 -16.047
162 2.25257 7.3024 1 9.86356 -66.0192 -16.0919
163 2.45257 7.3024 1 9.73172 -75.6171 -32.5322
164 2.65257 7.3024 1 9.60223 -71.2685 -32.5471
165 2.85257 7.3024 1 9.47519 -80.3812 -97.0318
166 3.05257 7.3024 1 9.3507 -78.6396 -31.225
167 3.25257 7.3024 1 9.22887 -76.1945 -104.719
168 3.45257 7.3024 1 9.1098 -79.1621 155.612
169 3.65257 7.3024 1 8.9936 -75.5777 -36.6512
170 3.85257 7.3024 1 8.88039 -82.4287 -22.8801
171 2.05257 7.5024 1 10.141 -65.9434 -72.0764
172 2.25257 7.5024 1 10.0088 -66.8376 -107.083
173 2.45257 7.5024 1 9.87893 -70.5491 -174.509
174 2.65257 7.5024 1 9.7514 -75.7229 30.4182
175 2.85257 7.5024 1 9.62633 -69.3746 -85.0221
176 3.05257 7.5024 1 9.50382 -66.75 -175.111
177 3.25257 7.5024 1 9.38398 -68.66 85.3282
178 3.45257 7.5024 1 9.2669 -71.5396 -77.9661
179 3.65257 7.5024 1 9.1527 -77.2133 124.38
180 3.85257 7.5024 1 9.04148 -77.8358 6.20835
181 2.05257 7.7024 1 10.2863 -70.0956 162.955
182 2.25257 7.7024 1 10.156 -74.6073 150.811
183 2.45257 7.7024 1 10.028 -76.4436 126.896
184 2.65257 7.7024 1 9.90236 -90.2034 37.1803
185 2.85257 7.7024 1 9.77922 -80.2497 -166.812
186 3.05257 7.7024 1 9.65866 -76.7957 108.409
187 3.25257 7.7024 1 9.54076 -87.8178 -41.1917
188 3.45257 7.7024 1 9.42563 -80.362 49.1218
189 3.65257 7.7024 1 9.31337 -80.0939 -89.0887
190 3.85257 7.7024 1 9.20409 -79.8798 -1.24
