#Rx
# X(m), Y(m), Z(m), Distance(m), Power (dBm) Phase (deg)
1 6.94247 0.172736 1 5.21375 -52.5965 176.065
2 7.14247 0.172736 1 5.02653 -53.978 -7.8889
3 7.34247 0.172736 1 4.84032 -52.579 132.434
4 7.54247 0.172736 1 4.65526 -50.6362 -43.8541
5 7.74247 0.172736 1 4.47148 -51.3553 129.814
6 7.94247 0.172736 1 4.28916 -50.993 -98.4676
7 8.14247 0.172736 1 4.10848 -51.3481 58.1709
8 8.34247 0.172736 1 3.92967 -54.0848 -114.808
9 8.54247 0.172736 1 3.75301 -55.1331 39.5548
10 8.74247 0.172736 1 3.5788 -55.7068 -160.483
11 6.94247 0.372736 1 5.21767 -52.118 106.816
12 7.14247 0.372736 1 5.03059 -49.3579 -89.0741
13 7.34247 0.372736 1 4.84453 -49.0041 76.3382
14 7.54247 0.372736 1 4.65964 -52.6801 -103.079
15 7.74247 0.372736 1 4.47604 -48.9393 75.909
16 7.94247 0.372736 1 4.29391 -46.1784 -132.416
17 8.14247 0.372736 1 4.11344 -53.254 45.2007
18 8.34247 0.372736 1 3.93486 -52.4934 -154.84
19 8.54247 0.372736 1 3.75844 -54.2533 -16.0464
20 8.74247 0.372736 1 3.58449 -53.4072 145.656
21 6.94247 0.572736 1 5.22923 -49.0068 75.8931
22 7.14247 0.572736 1 5.04258 -47.2953 -119.646
23 7.34247 0.572736 1 4.85699 -45.2992 34.1316
24 7.54247 0.572736 1 4.67259 -47.5173 -146.81
25 7.74247 0.572736 1 4.48952 -47.3017 28.0785
26 7.94247 0.572736 1 4.30796 -46.6486 170.182
27 8.14247 0.572736 1 4.1281 -47.4821 -28.2177
28 8.34247 0.572736 1 3.95019 -51.4897 152.28
29 8.54247 0.572736 1 3.77448 -51.5054 -78.3261
30 8.74247 0.572736 1 3.60131 -51.9259 68.8127
31 6.94247 0.772736 1 5.2484 -45.4888 -17.2676
32 7.14247 0.772736 1 5.06245 -46.4962 159.805
33 7.34247 0.772736 1 4.87762 -47.1139 -23.9214
34 7.54247 0.772736 1 4.69403 -51.3913 129.152
35 7.74247 0.772736 1 4.51183 -48.5203 -51.6758
36 7.94247 0.772736 1 4.33121 -46.7505 103.867
37 8.14247 0.772736 1 4.15236 -55.3073 -118.823
38 8.34247 0.772736 1 3.97552 -56.986 33.6178
39 8.54247 0.772736 1 3.80099 -58.3362 150.55
40 8.74247 0.772736 1 3.62908 -58.1579 -58.009
41 6.94247 0.972736 1 5.27509 -43.6318 -93.7786
42 7.14247 0.972736 1 5.09011 -41.6317 47.7835
43 7.34247 0.972736 1 4.90632 -44.9129 -152.796
44 7.54247 0.972736 1 4.72385 -50.6598 32.9619
45 7.74247 0.972736 1 4.54285 -48.8537 -163.897
46 7.94247 0.972736 1 4.3635 -46.8899 -15.1236
47 8.14247 0.972736 1 4.18604 -53.6428 102.797
48 8.34247 0.972736 1 4.01069 -54.9742 -155.932
49 8.54247 0.972736 1 3.83775 -55.1169 17.5274
50 8.74247 0.972736 1 3.66757 -65.8879 27.1336
51 6.94247 1.17274 1 5.30918 -45.6445 149.303
52 7.14247 1.17274 1 5.12544 -41.4392 -57.1584
53 7.34247 1.17274 1 4.94296 -42.666 82.0669
54 7.54247 1.17274 1 4.76188 -45.2426 -152.328
55 7.74247 1.17274 1 4.58239 -50.2225 33.4811
56 7.94247 1.17274 1 4.40466 -47.0641 172.397
57 8.14247 1.17274 1 4.22891 -45.9507 -56.323
58 8.34247 1.17274 1 4.05542 -51.7165 84.9891
59 8.54247 1.17274 1 3.88448 -53.5814 -147.557
60 8.74247 1.17274 1 3.71644 -56.759 -89.5078
61 6.94247 1.37274 1 5.35053 -48.459 61.7504
62 7.14247 1.37274 1 5.16826 -44.2796 -146.573
63 7.34247 1.37274 1 4.98735 -45.7486 -20.7203
64 7.54247 1.37274 1 4.80795 -44.8339 84.8286
65 7.74247 1.37274 1 4.63024 -48.5312 -148.367
66 7.94247 1.37274 1 4.45442 -56.8545 -61.0763
67 8.14247 1.37274 1 4.28072 -59.6733 167.345
68 8.34247 1.37274 1 4.10941 -58.0091 130.366
69 8.54247 1.37274 1 3.94081 -50.49 -76.6784
70 8.74247 1.37274 1 3.77528 -51.5674 54.5522
71 6.94247 1.57274 1 5.39898 -50.8137 -99.3953
72 7.14247 1.57274 1 5.2184 -50.5507 73.1318
73 7.34247 1.57274 1 5.03929 -49.3771 -150.628
74 7.54247 1.57274 1 4.86181 -46.1704 -27.1755
75 7.74247 1.57274 1 4.68614 -48.4696 87.4843
76 7.94247 1.57274 1 4.5125 -53.5117 -168.265
77 8.14247 1.57274 1 4.34113 -50.0612 -120.649
78 8.34247 1.57274 1 4.1723 -49.1404 -40.6685
79 8.54247 1.57274 1 4.00635 -52.829 102.049
80 8.74247 1.57274 1 3.84364 -79.739 115.051
81 6.94247 1.77274 1 5.45434 -50.4653 -68.2346
82 7.14247 1.77274 1 5.27566 -51.9216 69.6331
83 7.34247 1.77274 1 5.09856 -71.5221 -95.1529
84 7.54247 1.77274 1 4.92321 -54.8867 -107.606
85 7.74247 1.77274 1 4.74981 -50.9085 29.339
86 7.94247 1.77274 1 4.57859 -49.226 110.325
87 8.14247 1.77274 1 4.40978 -48.7213 -153.682
88 8.34247 1.77274 1 4.24369 -45.4545 -54.5365
89 8.54247 1.77274 1 4.08064 -46.84 61.9512
90 8.74247 1.77274 1 3.92102 -48.7791 -171.779
