#Rx
# X(m), Y(m), Z(m), Distance(m), Power (dBm) Phase (deg)
1 2.98542 0.133894 1 6.12828 -49.251 47.7512
2 3.18542 0.133894 1 5.93847 -51.1908 172.277
3 3.38542 0.133894 1 5.74935 -54.6685 -86.055
4 3.58542 0.133894 1 5.56098 -55.1635 -6.95597
5 3.78542 0.133894 1 5.37346 -58.3901 134.958
6 3.98542 0.133894 1 5.18687 -57.3555 -155.076
7 4.18542 0.133894 1 5.00132 -59.4108 46.2313
8 4.38542 0.133894 1 4.81693 -56.1708 -66.8408
9 4.58542 0.133894 1 4.63383 -55.6196 21.8786
10 2.98542 0.333894 1 6.12988 -48.5004 -3.82399
11 3.18542 0.333894 1 5.94012 -51.6909 171.844
12 3.38542 0.333894 1 5.75105 -67.1435 34.1169
13 3.58542 0.333894 1 5.56275 -55.3683 -75.8782
14 3.78542 0.333894 1 5.37529 -48.6513 61.3202
15 3.98542 0.333894 1 5.18877 -49.2813 -160.296
16 4.18542 0.333894 1 5.00329 -59.0209 -47.7783
17 4.38542 0.333894 1 4.81897 -50.6536 -143.881
18 4.58542 0.333894 1 4.63595 -44.0798 8.17028
19 2.98542 0.533894 1 6.13801 -47.5856 -79.4469
20 3.18542 0.533894 1 5.9485 -53.0768 122.647
21 3.38542 0.533894 1 5.75971 -55.0584 -14.8778
22 3.58542 0.533894 1 5.5717 -50.0399 168.93
23 3.78542 0.533894 1 5.38455 -45.3864 -4.75899
24 3.98542 0.533894 1 5.19836 -45.6137 150.644
25 4.18542 0.533894 1 5.01323 -47.3097 -30.695
26 4.38542 0.533894 1 4.82929 -46.2449 174.168
27 4.58542 0.533894 1 4.64668 -44.3073 -33.7797
28 2.98542 0.733894 1 6.15262 -45.3804 -122.785
29 3.18542 0.733894 1 5.96358 -46.824 77.6772
30 3.38542 0.733894 1 5.77528 -45.4998 -79.2122
31 3.58542 0.733894 1 5.5878 -45.0671 109.622
32 3.78542 0.733894 1 5.40121 -43.3037 -71.3742
33 3.98542 0.733894 1 5.21561 -42.734 94.0979
34 4.18542 0.733894 1 5.03112 -46.2774 -105.495
35 4.38542 0.733894 1 4.84786 -49.4649 78.8294
36 4.58542 0.733894 1 4.66597 -44.7882 -99.4644
37 2.98542 0.933894 1 6.17369 -45.0213 159.802
38 3.18542 0.933894 1 5.98531 -45.1802 -7.67658
39 3.38542 0.933894 1 5.79772 -47.1498 -176.971
40 3.58542 0.933894 1 5.61098 -44.533 15.6035
41 3.78542 0.933894 1 5.42519 -43.9919 -170.04
42 3.98542 0.933894 1 5.24044 -42.9521 -23.2754
43 4.18542 0.933894 1 5.05686 -44.2044 141.536
44 4.38542 0.933894 1 4.87456 -50.8628 -48.8603
45 4.58542 0.933894 1 4.69371 -47.6656 123.864
46 2.98542 1.13389 1 6.20113 -47.6487 99.6612
47 3.18542 1.13389 1 6.01362 -45.8841 -58.1573
48 3.38542 1.13389 1 5.82693 -47.7679 122.271
49 3.58542 1.13389 1 5.64116 -46.4397 -59.4291
50 3.78542 1.13389 1 5.4564 -45.0716 88.3288
51 3.98542 1.13389 1 5.27275 -43.9215 -128.459
52 4.18542 1.13389 1 5.09033 -44.8823 17.8074
53 4.38542 1.13389 1 4.90928 -47.5066 153.659
54 4.58542 1.13389 1 4.72975 -49.7559 -55.9362
55 2.98542 1.33389 1 6.23488 -51.5232 9.79654
56 3.18542 1.33389 1 6.04841 -49.5636 -158.609
57 3.38542 1.33389 1 5.86283 -47.4281 15.0843
58 3.58542 1.33389 1 5.67824 -43.4563 -161.194
59 3.78542 1.33389 1 5.49472 -42.908 1.72948
60 3.98542 1.33389 1 5.31239 -43.8842 141.583
61 4.18542 1.33389 1 5.13138 -45.0289 -80.0516
62 4.38542 1.33389 1 4.95183 -47.2434 50.3592
63 4.58542 1.33389 1 4.77391 -50.3202 -158.563
64 2.98542 1.53389 1 6.27482 -58.0521 -71.538
65 3.18542 1.53389 1 6.08957 -53.7421 125.112
66 3.38542 1.53389 1 5.90529 -53.2197 -79.9071
67 3.58542 1.53389 1 5.72206 -51.0264 87.5736
68 3.78542 1.53389 1 5.54 -49.2484 -143.605
69 3.98542 1.53389 1 5.35921 -44.6313 2.91577
70 4.18542 1.53389 1 5.17984 -44.0801 154.811
71 4.38542 1.53389 1 5.00203 -45.8266 -48.679
72 4.58542 1.53389 1 4.82595 -50.941 129.096
73 2.98542 1.73389 1 6.32083 -55.689 -177.553
74 3.18542 1.73389 1 6.13698 -55.5585 54.2361
75 3.38542 1.73389 1 5.95416 -63.3848 -173.563
76 3.58542 1.73389 1 5.77249 -58.0912 -50.7261
77 3.78542 1.73389 1 5.59207 -51.4968 99.1712
78 3.98542 1.73389 1 5.41302 -49.0761 -97.7209
79 4.18542 1.73389 1 5.23549 -51.1594 40.9698
80 4.38542 1.73389 1 5.05964 -46.5684 -171.205
81 4.58542 1.73389 1 4.88564 -50.0505 3.20576
