#Rx
# X(m), Y(m), Z(m), Distance(m), Power (dBm) Phase (deg)
1 5.1281 4.11579 1 7.90187 -54.2642 40.3059
2 5.3281 4.11579 1 7.73257 -66.4779 109.214
3 5.5281 4.11579 1 7.56478 -62.1536 -135.916
4 5.7281 4.11579 1 7.39858 -50.9219 -23.1409
5 5.9281 4.11579 1 7.2341 -52.6271 112.268
6 6.1281 4.11579 1 7.07144 -51.9354 -122.188
7 6.3281 4.11579 1 6.91075 -54.4799 -81.9631
8 6.5281 4.11579 1 6.75216 -49.2764 24.6485
9 6.7281 4.11579 1 6.59581 -47.957 123.583
10 6.9281 4.11579 1 6.44189 -53.5267 179.613
11 7.1281 4.11579 1 6.29055 -47.9461 -94.2545
12 7.3281 4.11579 1 6.14201 -49.3629 -40.5904
13 5.1281 4.31579 1 7.80888 -50.5009 -137.935
14 5.3281 4.31579 1 7.63752 -54.3824 -18.5561
15 5.5281 4.31579 1 7.46759 -54.0448 151.956
16 5.7281 4.31579 1 7.29918 -51.6437 -155.597
17 5.9281 4.31579 1 7.13241 -55.679 -29.2607
18 6.1281 4.31579 1 6.96738 -53.6296 119.671
19 6.3281 4.31579 1 6.80423 -57.0506 -100.74
20 6.5281 4.31579 1 6.64309 -56.2688 6.34225
21 6.7281 4.31579 1 6.48412 -50.5962 47.432
22 6.9281 4.31579 1 6.32748 -47.5066 177.61
23 7.1281 4.31579 1 6.17334 -49.4492 -108.805
24 7.3281 4.31579 1 6.0219 -50.4254 -76.4197
25 5.1281 4.51579 1 7.71995 -53.4534 -169.442
26 5.3281 4.51579 1 7.54658 -55.7714 -18.8181
27 5.5281 4.51579 1 7.37455 -52.9397 69.9545
28 5.7281 4.51579 1 7.20397 -50.3562 171.18
29 5.9281 4.51579 1 7.03493 -50.3058 -85.24
30 6.1281 4.51579 1 6.86756 -49.6027 32.5273
31 6.3281 4.51579 1 6.70198 -52.0404 147.872
32 6.5281 4.51579 1 6.53833 -49.899 -73.0887
33 6.7281 4.51579 1 6.37675 -55.032 79.2515
34 6.9281 4.51579 1 6.2174 -51.4779 117.133
35 7.1281 4.51579 1 6.06046 -46.1681 -167.91
36 7.3281 4.51579 1 5.90613 -46.0358 -57.4389
37 5.1281 4.71579 1 7.63523 -55.3106 -50.4311
38 5.3281 4.71579 1 7.45988 -68.4341 138.425
39 5.5281 4.71579 1 7.28581 -55.75 32.4511
40 5.7281 4.71579 1 7.1131 -53.1696 162.428
41 5.9281 4.71579 1 6.94185 -55.4536 -83.9626
42 6.1281 4.71579 1 6.77219 -53.4351 -18.593
43 6.3281 4.71579 1 6.60422 -53.1995 81.8463
44 6.5281 4.71579 1 6.43808 -49.1887 -177.771
45 6.7281 4.71579 1 6.27391 -51.0616 -7.69279
46 6.9281 4.71579 1 6.11188 -51.2755 77.2586
47 7.1281 4.71579 1 5.95217 -51.0511 172.266
48 7.3281 4.71579 1 5.79495 -47.561 -127.666
49 5.1281 4.91579 1 7.55485 -65.0643 -23.527
50 5.3281 4.91579 1 7.3776 -54.6599 -11.5955
51 5.5281 4.91579 1 7.20154 -52.6481 127.977
52 5.7281 4.91579 1 7.02675 -54.7519 -42.2234
53 5.9281 4.91579 1 6.85335 -53.4668 163.096
54 6.1281 4.91579 1 6.68144 -52.7524 -27.7122
55 6.3281 4.91579 1 6.51112 -54.5959 41.3465
56 6.5281 4.91579 1 6.34255 -52.4228 102.498
57 6.7281 4.91579 1 6.17584 -49.7969 -127.148
58 6.9281 4.91579 1 6.01117 -50.7314 12.6054
59 7.1281 4.91579 1 5.84871 -51.1226 134.793
60 7.3281 4.91579 1 5.68863 -50.4361 179.166
61 5.1281 5.11579 1 7.47896 -52.2503 -40.8504
62 5.3281 5.11579 1 7.29986 -58.1266 117.207
63 5.5281 5.11579 1 7.12188 -58.827 -134.795
64 5.7281 5.11579 1 6.94509 -57.7332 142.982
65 5.9281 5.11579 1 6.7696 -55.7349 -57.3393
66 6.1281 5.11579 1 6.5955 -57.9885 153.931
67 6.3281 5.11579 1 6.42291 -49.1791 -31.947
68 6.5281 5.11579 1 6.25196 -55.311 106.364
69 6.7281 5.11579 1 6.08277 -63.8188 160.302
70 6.9281 5.11579 1 5.91551 -53.7704 -115.952
71 7.1281 5.11579 1 5.75034 -47.6752 31.0263
72 7.3281 5.11579 1 5.58745 -49.5533 168.543
73 5.1281 5.31579 1 7.40769 -57.6029 174.834
74 5.3281 5.31579 1 7.22683 -50.6374 0.70007
75 5.5281 5.31579 1 7.047 -51.4714 141.487
76 5.7281 5.31579 1 6.86829 -57.8455 -57.0579
77 5.9281 5.31579 1 6.69078 -67.2481 -90.6216
78 6.1281 5.31579 1 6.51458 -53.8741 -70.4179
79 6.3281 5.31579 1 6.33978 -57.3818 -168.106
80 6.5281 5.31579 1 6.16652 -55.3932 -40.3825
81 6.7281 5.31579 1 5.99493 -51.7295 101.591
82 6.9281 5.31579 1 5.82515 -63.3614 -75.1405
83 7.1281 5.31579 1 5.65734 -58.4576 -32.2773
84 7.3281 5.31579 1 5.49169 -50.0437 72.4977
85 5.1281 5.51579 1 7.34119 -50.9554 3.72393
86 5.3281 5.51579 1 7.15864 -50.2702 146.871
87 5.5281 5.51579 1 6.97706 -50.9327 -13.2829
88 5.7281 5.51579 1 6.7965 -48.5706 145.678
89 5.9281 5.51579 1 6.61707 -55.4298 -78.3606
90 6.1281 5.51579 1 6.43885 -54.1179 150.297
91 6.3281 5.51579 1 6.26194 -68.6325 33.0713
92 6.5281 5.51579 1 6.08647 -63.0571 -24.3597
93 6.7281 5.51579 1 5.91255 -60.9391 -4.68102
94 6.9281 5.51579 1 5.74033 -66.9748 168.322
95 7.1281 5.51579 1 5.56997 -64.2552 -133.441
96 7.3281 5.51579 1 5.40164 -58.602 -25.2659
97 5.1281 5.71579 1 7.27957 -55.347 -122.685
98 5.3281 5.71579 1 7.09544 -50.3525 -2.54329
99 5.5281 5.71579 1 6.91219 -52.1832 151.059
100 5.7281 5.71579 1 6.7299 -58.1135 -27.6238
101 5.9281 5.71579 1 6.54864 -51.5065 127.422
102 6.1281 5.71579 1 6.36851 -51.4891 -57.8033
103 6.3281 5.71579 1 6.18959 -56.5477 163.266
104 6.5281 5.71579 1 6.012 -62.3972 -41.9417
105 6.7281 5.71579 1 5.83587 -56.3707 -169.881
106 6.9281 5.71579 1 5.66131 -50.709 40.6174
107 7.1281 5.71579 1 5.4885 -53.5458 169.867
108 7.3281 5.71579 1 5.31759 -50.4426 -73.9181
109 5.1281 5.91579 1 7.22296 -51.0594 22.3691
110 5.3281 5.91579 1 7.03735 -53.4235 -145.356
111 5.5281 5.91579 1 6.85255 -47.5167 25.6547
112 5.7281 5.91579 1 6.66863 -50.7916 179.229
113 5.9281 5.91579 1 6.48566 -49.2227 -5.67922
114 6.1281 5.91579 1 6.30372 -47.8471 153.138
115 6.3281 5.91579 1 6.12291 -48.1947 -55.5969
116 6.5281 5.91579 1 5.94334 -47.5538 105.154
117 6.7281 5.91579 1 5.7651 -48.0518 -85.4133
118 6.9281 5.91579 1 5.58834 -56.7375 73.5604
119 7.1281 5.91579 1 5.4132 -63.4964 -110.236
120 7.3281 5.91579 1 5.23983 -56.986 73.876
121 5.1281 6.11579 1 7.17149 -45.7402 -172.413
122 5.3281 6.11579 1 6.98451 -44.5896 -7.55422
123 5.5281 6.11579 1 6.79827 -46.8429 165.823
124 5.7281 6.11579 1 6.61284 -46.2642 -29.5021
125 5.9281 6.11579 1 6.42828 -45.3035 147.388
126 6.1281 6.11579 1 6.24468 -49.6199 -50.612
127 6.3281 6.11579 1 6.06211 -48.3251 119.601
128 6.5281 6.11579 1 5.88067 -49.3498 -88.0283
129 6.7281 6.11579 1 5.70048 -49.445 56.7419
130 6.9281 6.11579 1 5.52165 -50.9844 -157.081
131 7.1281 6.11579 1 5.34432 -53.9919 -24.6144
132 7.3281 6.11579 1 5.16865 -55.8391 -175.039
133 5.1281 6.31579 1 7.12526 -47.2966 -29.9607
134 5.3281 6.31579 1 6.93703 -49.935 161.362
135 5.5281 6.31579 1 6.74949 -49.2659 -41.0853
136 5.7281 6.31579 1 6.56268 -48.0363 129.895
137 5.9281 6.31579 1 6.37667 -49.3408 -41.9349
138 6.1281 6.31579 1 6.19153 -48.2487 119.442
139 6.3281 6.31579 1 6.00735 -46.8787 -70.904
140 6.5281 6.31579 1 5.82421 -47.7045 107.251
141 6.7281 6.31579 1 5.64221 -51.298 -117.12
142 6.9281 6.31579 1 5.46147 -51.4916 30.5431
143 7.1281 6.31579 1 5.28213 -53.2313 -172.064
144 7.3281 6.31579 1 5.10431 -49.0522 -33.8295
145 5.1281 6.51579 1 7.08437 -45.963 128.277
146 5.3281 6.51579 1 6.89504 -48.2405 -60.023
147 5.5281 6.51579 1 6.70632 -47.6348 104.144
148 5.7281 6.51579 1 6.51827 -47.0696 -53.7326
149 5.9281 6.51579 1 6.33095 -49.7239 109.853
150 6.1281 6.51579 1 6.14444 -48.5105 -79.419
151 6.3281 6.51579 1 5.9588 -47.5301 86.4685
152 6.5281 6.51579 1 5.77412 -47.6651 -103.198
153 6.7281 6.51579 1 5.59049 -49.0505 47.1836
154 6.9281 6.51579 1 5.40803 -48.131 -158.165
155 7.1281 6.51579 1 5.22685 -52.6729 24.1899
156 7.3281 6.51579 1 5.04709 -49.4985 147.399
157 5.1281 6.71579 1 7.04893 -50.9949 -159.402
158 5.3281 6.71579 1 6.85861 -51.9288 41.7894
159 5.5281 6.71579 1 6.66886 -51.9425 -112.561
160 5.7281 6.71579 1 6.47973 -54.3363 72.0005
161 5.9281 6.71579 1 6.29127 -55.2966 -94.0338
162 6.1281 6.71579 1 6.10354 -52.5063 87.2296
163 6.3281 6.71579 1 5.91662 -52.1605 -86.702
164 6.5281 6.71579 1 5.73058 -54.3677 65.1255
165 6.7281 6.71579 1 5.54551 -57.7587 -135.76
166 6.9281 6.71579 1 5.36151 -53.805 44.9896
167 7.1281 6.71579 1 5.17871 -47.7898 -152.35
168 7.3281 6.71579 1 4.99721 -48.1096 6.83019
169 5.1281 6.91579 1 7.01901 -49.8372 -59.6702
170 5.3281 6.91579 1 6.82786 -49.7784 154.21
171 5.5281 6.91579 1 6.63723 -55.3052 -43.9613
172 5.7281 6.91579 1 6.44717 -51.7745 157.93
173 5.9281 6.91579 1 6.25773 -52.664 9.8157
174 6.1281 6.91579 1 6.06896 -52.5563 -160.987
175 6.3281 6.91579 1 5.88094 -53.0334 19.9669
176 6.5281 6.91579 1 5.69373 -54.0178 179.797
177 6.7281 6.91579 1 5.50743 -51.7434 10.9287
178 6.9281 6.91579 1 5.32211 -53.191 -172.504
179 7.1281 6.91579 1 5.1379 -46.3805 -22.1775
180 7.3281 6.91579 1 4.95492 -47.5225 136.409
181 5.1281 7.11579 1 6.99468 -52.2871 45.4159
182 5.3281 7.11579 1 6.80285 -51.01 -145.276
183 5.5281 7.11579 1 6.6115 -51.7285 46.5017
184 5.7281 7.11579 1 6.42067 -52.2971 -104.725
185 5.9281 7.11579 1 6.23042 -53.9834 101.313
186 6.1281 7.11579 1 6.04081 -52.2615 -93.1398
187 6.3281 7.11579 1 5.85188 -50.8658 97.8645
188 6.5281 7.11579 1 5.66371 -50.4774 -73.489
189 6.7281 7.11579 1 5.47639 -50.3855 115.05
190 6.9281 7.11579 1 5.28999 -48.0675 -60.5851
191 7.1281 7.11579 1 5.10462 -48.659 91.5642
192 7.3281 7.11579 1 4.92039 -46.2586 -128.273
193 5.1281 7.31579 1 6.976 -52.7474 90.853
194 5.3281 7.31579 1 6.78364 -51.8171 -52.3449
195 5.5281 7.31579 1 6.59173 -58.1569 142.21
196 5.7281 7.31579 1 6.40032 -55.1083 -43.474
197 5.9281 7.31579 1 6.20945 -53.7429 145.498
198 6.1281 7.31579 1 6.01917 -51.6703 -17.2922
199 6.3281 7.31579 1 5.82954 -49.6906 -169.671
200 6.5281 7.31579 1 5.64063 -50.0821 -4.01364
201 6.7281 7.31579 1 5.45251 -49.0173 177.971
202 6.9281 7.31579 1 5.26527 -50.6587 22.936
203 7.1281 7.31579 1 5.079 -47.6153 167.619
204 7.3281 7.31579 1 4.89381 -48.4049 -31.9164
205 5.1281 7.51579 1 6.96302 -57.8179 119.574
206 5.3281 7.51579 1 6.77029 -58.2589 -90.3342
207 5.5281 7.51579 1 6.578 -65.7912 67.0384
208 5.7281 7.51579 1 6.38617 -61.2871 73.1222
209 5.9281 7.51579 1 6.19486 -55.8378 -91.366
210 6.1281 7.51579 1 6.00412 -55.0544 87.2958
211 6.3281 7.51579 1 5.814 -51.8166 -101.937
212 6.5281 7.51579 1 5.62457 -50.6537 71.481
213 6.7281 7.51579 1 5.4359 -48.9305 -117.821
214 6.9281 7.51579 1 5.24806 -46.6651 65.0708
215 7.1281 7.51579 1 5.06115 -50.057 -124.911
216 7.3281 7.51579 1 4.87529 -47.9158 25.9243
217 5.1281 7.71579 1 6.95577 -55.8495 149.61
218 5.3281 7.71579 1 6.76284 -57.1379 -34.5018
219 5.5281 7.71579 1 6.57032 -59.9289 43.7437
220 5.7281 7.71579 1 6.37826 -59.7437 -155.65
221 5.9281 7.71579 1 6.18671 -63.2897 13.8385
222 6.1281 7.71579 1 5.99571 -53.7576 97.6929
223 6.3281 7.71579 1 5.80532 -54.6195 -76.2016
224 6.5281 7.71579 1 5.61559 -55.3656 95.3255
225 6.7281 7.71579 1 5.4266 -51.2988 -57.5369
226 6.9281 7.71579 1 5.23843 -52.2853 115.489
227 7.1281 7.71579 1 5.05117 -49.812 -86.42
228 7.3281 7.71579 1 4.86493 -59.5999 78.4266
