#Rx
# X(m), Y(m), Z(m), Distance(m), Power (dBm) Phase (deg)
1 6.94247 0.172736 1 9.30031 -54.46 144.983
2 7.14247 0.172736 1 9.19645 -55.6417 109.104
3 7.34247 0.172736 1 9.0958 -50.9881 44.3233
4 7.54247 0.172736 1 8.99847 -50.7212 -48.3925
5 7.74247 0.172736 1 8.90457 -53.9575 -124.462
6 7.94247 0.172736 1 8.81421 -52.6073 85.4306
7 8.14247 0.172736 1 8.72749 -53.4298 24.258
8 8.34247 0.172736 1 8.64454 -56.7686 179.374
9 8.54247 0.172736 1 8.56545 -64.1346 56.7191
10 8.74247 0.172736 1 8.49034 -68.7686 -137.701
11 6.94247 0.372736 1 9.13551 -52.5687 -104.794
12 7.14247 0.372736 1 9.02976 -53.8787 -158.1
13 7.34247 0.372736 1 8.92723 -53.2125 148.963
14 7.54247 0.372736 1 8.82804 -51.8003 78.9427
15 7.74247 0.372736 1 8.73231 -56.6833 -3.21781
16 7.94247 0.372736 1 8.64014 -54.3019 -66.5737
17 8.14247 0.372736 1 8.55167 -50.2413 138.722
18 8.34247 0.372736 1 8.46699 -55.8706 -12.4401
19 8.54247 0.372736 1 8.38623 -61.1009 174.195
20 8.74247 0.372736 1 8.30949 -63.5188 83.4597
21 6.94247 0.572736 1 8.97215 -53.1424 -172.599
22 7.14247 0.572736 1 8.86444 -49.4963 -44.7046
23 7.34247 0.572736 1 8.75998 -52.5558 -95.1615
24 7.54247 0.572736 1 8.65888 -51.4152 -161.207
25 7.74247 0.572736 1 8.56125 -51.4979 117.502
26 7.94247 0.572736 1 8.46723 -56.0697 41.3936
27 8.14247 0.572736 1 8.37692 -51.6005 -89.9683
28 8.34247 0.572736 1 8.29046 -54.0337 -142.735
29 8.54247 0.572736 1 8.20796 -59.1022 -12.646
30 8.74247 0.572736 1 8.12955 -57.3254 -139.769
31 6.94247 0.772736 1 8.81029 -49.3352 -56.6372
32 7.14247 0.772736 1 8.70058 -56.0528 -137.897
33 7.34247 0.772736 1 8.59413 -50.1231 25.4863
34 7.54247 0.772736 1 8.49105 -49.394 -24.7887
35 7.74247 0.772736 1 8.39148 -49.256 -108.634
36 7.94247 0.772736 1 8.29553 -55.3117 166.693
37 8.14247 0.772736 1 8.20333 -56.3269 93.3139
38 8.34247 0.772736 1 8.11502 -51.2475 -44.8912
39 8.54247 0.772736 1 8.03072 -57.3401 172.668
40 8.74247 0.772736 1 7.95056 -67.8237 -22.1436
41 6.94247 0.972736 1 8.65004 -48.7517 50.7739
42 7.14247 0.972736 1 8.53827 -50.7657 14.0955
43 7.34247 0.972736 1 8.42976 -52.6443 135.914
44 7.54247 0.972736 1 8.32465 -52.7351 91.9005
45 7.74247 0.972736 1 8.22306 -51.1247 42.274
46 7.94247 0.972736 1 8.12512 -50.7559 -55.4101
47 8.14247 0.972736 1 8.03097 -53.4096 -137.279
48 8.34247 0.972736 1 7.94075 -48.5394 81.0166
49 8.54247 0.972736 1 7.85457 -55.4686 43.9445
50 8.74247 0.972736 1 7.7726 -61.1459 172.848
51 6.94247 1.17274 1 8.49146 -51.8644 139.662
52 7.14247 1.17274 1 8.37758 -50.5417 114.464
53 7.34247 1.17274 1 8.26697 -49.9463 81.2883
54 7.54247 1.17274 1 8.15976 -52.5356 -166.138
55 7.74247 1.17274 1 8.05609 -50.4056 152.908
56 7.94247 1.17274 1 7.9561 -50.0995 70.172
57 8.14247 1.17274 1 7.85992 -51.1678 -8.37991
58 8.34247 1.17274 1 7.76771 -56.3193 -81.6529
59 8.54247 1.17274 1 7.6796 -48.8685 115.801
60 8.74247 1.17274 1 7.59573 -56.9893 -48.6835
61 6.94247 1.37274 1 8.33468 -50.8974 -132.279
62 7.14247 1.37274 1 8.21862 -51.1028 -165.881
63 7.34247 1.37274 1 8.10584 -51.0231 -174.72
64 7.54247 1.37274 1 7.99647 -49.7798 141.127
65 7.74247 1.37274 1 7.89065 -52.754 -94.6346
66 7.94247 1.37274 1 7.78854 -50.9592 -154.567
67 8.14247 1.37274 1 7.69027 -49.6096 136.255
68 8.34247 1.37274 1 7.59599 -52.4597 38.3948
69 8.54247 1.37274 1 7.50587 -48.999 -105.315
70 8.74247 1.37274 1 7.42004 -53.06 -146.196
71 6.94247 1.57274 1 8.17977 -51.6854 -32.998
72 7.14247 1.57274 1 8.06149 -51.2032 -51.1803
73 7.34247 1.57274 1 7.94648 -48.3008 -91.5502
74 7.54247 1.57274 1 7.83488 -50.5835 -118.907
75 7.74247 1.57274 1 7.72685 -51.385 6.9778
76 7.94247 1.57274 1 7.62254 -50.4901 -32.9914
77 8.14247 1.57274 1 7.52211 -51.0815 -101.75
78 8.34247 1.57274 1 7.4257 -52.871 177.922
79 8.54247 1.57274 1 7.33348 -51.8702 100.599
80 8.74247 1.57274 1 7.2456 -47.4927 -74.1173
81 6.94247 1.77274 1 8.02686 -51.1383 29.8972
82 7.14247 1.77274 1 7.90629 -51.7756 28.052
83 7.34247 1.77274 1 7.78899 -50.1065 23.4489
84 7.54247 1.77274 1 7.6751 -49.1908 -25.7829
85 7.74247 1.77274 1 7.5648 -49.2655 -51.3788
86 7.94247 1.77274 1 7.45822 -50.3689 61.4766
87 8.14247 1.77274 1 7.35554 -51.8061 22.8544
88 8.34247 1.77274 1 7.25692 -49.3854 -61.336
89 8.54247 1.77274 1 7.16252 -51.177 -145.07
90 8.74247 1.77274 1 7.07253 -49.9587 109.26
