#Rx
# X(m), Y(m), Z(m), Distance(m), Power (dBm) Phase (deg)
1 6.94247 0.172736 1 6.08141 -63.142 23.941
2 7.14247 0.172736 1 6.27272 -68.7785 39.8651
3 7.34247 0.172736 1 6.46455 -66.3715 -4.11425
4 7.54247 0.172736 1 6.65687 -65.2117 -158.916
5 7.74247 0.172736 1 6.84962 -60.4729 57.9381
6 7.94247 0.172736 1 7.04278 -62.2572 -101.308
7 8.14247 0.172736 1 7.23632 -60.9389 81.1247
8 8.34247 0.172736 1 7.43019 -61.0845 -55.5163
9 8.54247 0.172736 1 7.62438 -56.0239 -175.446
10 8.74247 0.172736 1 7.81886 -55.2504 26.3174
11 6.94247 0.372736 1 6.08652 -52.9942 124.939
12 7.14247 0.372736 1 6.27768 -54.8256 -37.2112
13 7.34247 0.372736 1 6.46936 -63.7382 102.034
14 7.54247 0.372736 1 6.66154 -60.181 -130.782
15 7.74247 0.372736 1 6.85417 -58.8309 81.5178
16 7.94247 0.372736 1 7.0472 -57.2961 -101.075
17 8.14247 0.372736 1 7.24062 -71.3996 120.501
18 8.34247 0.372736 1 7.43438 -57.478 155.179
19 8.54247 0.372736 1 7.62846 -55.0416 -2.52462
20 8.74247 0.372736 1 7.82284 -53.0462 178.584
21 6.94247 0.572736 1 6.0982 -52.7173 69.2978
22 7.14247 0.572736 1 6.289 -52.025 -154.87
23 7.34247 0.572736 1 6.48035 -49.9261 39.3562
24 7.54247 0.572736 1 6.67221 -48.3223 -150.348
25 7.74247 0.572736 1 6.86454 -50.876 44.7754
26 7.94247 0.572736 1 7.05729 -53.3092 -152.642
27 8.14247 0.572736 1 7.25043 -67.4069 -109.648
28 8.34247 0.572736 1 7.44394 -57.4817 81.2085
29 8.54247 0.572736 1 7.63778 -53.2237 -111.273
30 8.74247 0.572736 1 7.83193 -50.1038 77.98
31 6.94247 0.772736 1 6.11639 -59.6612 22.8952
32 7.14247 0.772736 1 6.30664 -55.9775 150.963
33 7.34247 0.772736 1 6.49748 -50.5979 -29.8708
34 7.54247 0.772736 1 6.68885 -48.3888 158.736
35 7.74247 0.772736 1 6.88071 -50.865 -6.88093
36 7.94247 0.772736 1 7.07302 -51.9004 -172.417
37 8.14247 0.772736 1 7.26574 -53.0225 1.01881
38 8.34247 0.772736 1 7.45885 -54.0792 -134.351
39 8.54247 0.772736 1 7.65232 -56.9082 121.657
40 8.74247 0.772736 1 7.84611 -52.049 -0.0486699
41 6.94247 0.972736 1 6.14105 -52.3099 -30.3427
42 7.14247 0.972736 1 6.33056 -54.7242 87.255
43 7.34247 0.972736 1 6.52069 -51.1116 -108.932
44 7.54247 0.972736 1 6.7114 -47.0695 67.9478
45 7.74247 0.972736 1 6.90264 -45.6025 -111.852
46 7.94247 0.972736 1 7.09435 -45.4685 82.7363
47 8.14247 0.972736 1 7.28651 -47.5903 -82.1196
48 8.34247 0.972736 1 7.47909 -50.6956 123.721
49 8.54247 0.972736 1 7.67204 -56.091 -86.7168
50 8.74247 0.972736 1 7.86535 -54.2255 119.455
51 6.94247 1.17274 1 6.1721 -47.0876 -126.415
52 7.14247 1.17274 1 6.36068 -50.6867 61.9455
53 7.34247 1.17274 1 6.54994 -52.8084 -113.336
54 7.54247 1.17274 1 6.73982 -51.4664 6.11669
55 7.74247 1.17274 1 6.93027 -48.1022 171.819
56 7.94247 1.17274 1 7.12124 -45.639 -8.96086
57 8.14247 1.17274 1 7.3127 -48.8965 156.037
58 8.34247 1.17274 1 7.5046 -46.8288 -40.1487
59 8.54247 1.17274 1 7.69691 -45.0866 161.557
60 8.74247 1.17274 1 7.88961 -46.756 -26.7603
61 6.94247 1.37274 1 6.20943 -47.1188 118.6
62 7.14247 1.37274 1 6.39691 -48.1379 -40.7967
63 7.34247 1.37274 1 6.58513 -54.4015 117.556
64 7.54247 1.37274 1 6.77403 -55.3732 -118.292
65 7.74247 1.37274 1 6.96354 -52.7195 55.0646
66 7.94247 1.37274 1 7.15363 -55.1372 -151.144
67 8.14247 1.37274 1 7.34424 -48.4519 36.3478
68 8.34247 1.37274 1 7.53533 -48.8861 -141.201
69 8.54247 1.37274 1 7.72688 -47.7357 34.8031
70 8.74247 1.37274 1 7.91885 -54.4024 -144.169
71 6.94247 1.57274 1 6.25294 -48.8193 -2.34459
72 7.14247 1.57274 1 6.43916 -50.7955 -164.321
73 7.34247 1.57274 1 6.62618 -53.7066 61.0192
74 7.54247 1.57274 1 6.81393 -51.6188 -132.082
75 7.74247 1.57274 1 7.00237 -54.9512 113.858
76 7.94247 1.57274 1 7.19143 -54.4227 23.0836
77 8.14247 1.57274 1 7.38106 -57.0046 -114.246
78 8.34247 1.57274 1 7.57123 -63.7133 -147.846
79 8.54247 1.57274 1 7.76189 -58.6665 -23.8335
80 8.74247 1.57274 1 7.95302 -62.375 110.477
81 6.94247 1.77274 1 6.30251 -45.9359 -151.595
82 7.14247 1.77274 1 6.4873 -45.5474 36.4731
83 7.34247 1.77274 1 6.67297 -46.1053 -118.787
84 7.54247 1.77274 1 6.85944 -47.6611 96.4321
85 7.74247 1.77274 1 7.04666 -46.7121 -159.064
86 7.94247 1.77274 1 7.23456 -51.0537 44.9327
87 8.14247 1.77274 1 7.42309 -54.7137 -132.045
88 8.34247 1.77274 1 7.61221 -50.587 63.6425
89 8.54247 1.77274 1 7.80187 -59.4731 -103.641
90 8.74247 1.77274 1 7.99204 -57.6909 -74.6957
