#Rx
# X(m), Y(m), Z(m), Distance(m), Power (dBm) Phase (deg)
1 4.10728 4.08383 1 5.54207 -52.3706 -137.372
2 4.30728 4.08383 1 5.67423 -50.9417 -165.67
3 4.50728 4.08383 1 5.81027 -49.618 -171.851
4 4.70728 4.08383 1 5.94992 -52.5936 127.832
5 4.90728 4.08383 1 6.09294 -54.3124 102.615
6 4.10728 4.28383 1 5.40674 -52.5684 -86.2034
7 4.30728 4.28383 1 5.54213 -50.7856 -117.828
8 4.50728 4.28383 1 5.68133 -50.9077 179.698
9 4.70728 4.28383 1 5.82407 -52.9775 160.985
10 4.90728 4.28383 1 5.97011 -52.6814 124.365
11 4.10728 4.48383 1 5.27552 -49.9221 -71.9977
12 4.30728 4.48383 1 5.41419 -49.698 -118.044
13 4.50728 4.48383 1 5.5566 -50.8129 -132.539
14 4.70728 4.48383 1 5.70247 -49.1272 155.498
15 4.90728 4.48383 1 5.85154 -47.0416 101.47
16 4.10728 4.68383 1 5.14873 -52.3626 -52.3132
17 4.30728 4.68383 1 5.29072 -49.5575 -80.6127
18 4.50728 4.68383 1 5.43637 -47.303 -166.539
19 4.70728 4.68383 1 5.58538 -49.6249 137.656
20 4.90728 4.68383 1 5.73749 -47.3052 32.1372
21 4.10728 4.88383 1 5.0267 -48.5638 -51.798
22 4.30728 4.88383 1 5.17204 -46.9352 -120.623
23 4.50728 4.88383 1 5.32094 -53.0473 175.783
24 4.70728 4.88383 1 5.47309 -49.4654 99.0162
25 4.90728 4.88383 1 5.62824 -56.9071 0.448088
26 4.10728 5.08383 1 4.90979 -47.4868 -95.729
27 4.30728 5.08383 1 5.05849 -49.5642 -169.04
28 4.50728 5.08383 1 5.21063 -49.3657 136.448
29 4.70728 5.08383 1 5.36591 -49.9072 34.1605
30 4.90728 5.08383 1 5.52407 -58.9174 -81.1144
31 4.10728 5.28383 1 4.79836 -51.3264 -154.394
32 4.30728 5.28383 1 4.95042 -52.0589 142.022
33 4.50728 5.28383 1 5.10578 -50.8701 54.1057
34 4.70728 5.28383 1 5.26415 -54.9375 -78.4797
35 4.90728 5.28383 1 5.42528 -61.6691 107.648
36 4.10728 5.48383 1 4.69282 -56.8013 152.05
37 4.30728 5.48383 1 4.84819 -58.5981 31.1537
38 4.50728 5.48383 1 5.00672 -55.2808 -69.3357
39 4.70728 5.48383 1 5.16813 -55.3894 134.699
40 4.90728 5.48383 1 5.33216 -57.3532 -29.3591
41 4.10728 5.68383 1 4.59357 -63.5667 6.51392
42 4.30728 5.68383 1 4.75218 -73.289 -147.984
43 4.50728 5.68383 1 4.91381 -52.6168 130.688
44 4.70728 5.68383 1 5.07818 -52.5524 -9.76388
45 4.90728 5.68383 1 5.24502 -58.7979 99.4029
46 4.10728 5.88383 1 4.50102 -59.2659 -173.734
47 4.30728 5.88383 1 4.66278 -61.6357 28.9295
48 4.50728 5.88383 1 4.82741 -51.7392 -11.5715
49 4.70728 5.88383 1 4.99462 -57.1749 -164.181
50 4.90728 5.88383 1 5.16416 -59.6229 -95.9124
51 4.10728 6.08383 1 4.41559 -59.1412 -3.52015
52 4.30728 6.08383 1 4.58037 -58.2994 161.818
53 4.50728 6.08383 1 4.74786 -54.1802 -166.683
54 4.70728 6.08383 1 4.91777 -59.6153 139.462
55 4.90728 6.08383 1 5.08987 -51.9143 65.2222
56 4.10728 6.28383 1 4.33771 -59.0323 72.0026
57 4.30728 6.28383 1 4.50534 -52.7622 -27.7061
58 4.50728 6.28383 1 4.67551 -55.075 109.992
59 4.70728 6.28383 1 4.84797 -51.1118 -11.6518
60 4.90728 6.28383 1 5.02246 -53.9261 -73.8333
61 4.10728 6.48383 1 4.26779 -52.2268 -141.914
62 4.30728 6.48383 1 4.43806 -52.5935 149.018
63 4.50728 6.48383 1 4.61072 -65.081 -48.7919
64 4.70728 6.48383 1 4.78551 -57.4766 -151.374
65 4.90728 6.48383 1 4.9622 -46.5322 102.781
66 4.10728 6.68383 1 4.20623 -52.766 59.0236
67 4.30728 6.68383 1 4.37889 -51.7861 -57.8489
68 4.50728 6.68383 1 4.55379 -52.3906 -158.923
69 4.70728 6.68383 1 4.73068 -51.28 34.8313
70 4.90728 6.68383 1 4.90935 -44.9177 -110.621
71 4.10728 6.88383 1 4.15339 -47.2293 -101.171
72 4.30728 6.88383 1 4.32816 -43.7961 119.017
73 4.50728 6.88383 1 4.50503 -43.2303 6.05039
74 4.70728 6.88383 1 4.68376 -44.4988 -158.324
75 4.90728 6.88383 1 4.86415 -43.6943 39.1196
76 4.10728 7.08383 1 4.10962 -41.6981 31.4995
77 4.30728 7.08383 1 4.28617 -42.0357 -120.079
78 4.50728 7.08383 1 4.46471 -44.0371 106.679
79 4.70728 7.08383 1 4.64499 -46.037 -40.1728
80 4.90728 7.08383 1 4.82683 -44.8934 138.76
81 4.10728 7.28383 1 4.0752 -46.2283 142.107
82 4.30728 7.28383 1 4.25318 -45.9121 -14.8603
83 4.50728 7.28383 1 4.43305 -44.5298 -138.686
84 4.70728 7.28383 1 4.61457 -46.6333 65.5287
85 4.90728 7.28383 1 4.79756 -46.2353 -108.78
86 4.10728 7.48383 1 4.05037 -47.0926 -125.641
87 4.30728 7.48383 1 4.2294 -46.3077 38.802
88 4.50728 7.48383 1 4.41024 -47.2749 -99.517
89 4.70728 7.48383 1 4.59266 -49.3464 92.8325
90 4.90728 7.48383 1 4.77649 -48.9923 -99.6882
91 4.10728 7.68383 1 4.03532 -53.9392 -93.8479
92 4.30728 7.68383 1 4.21499 -51.7957 92.2257
93 4.50728 7.68383 1 4.39642 -51.0465 -39.0966
94 4.70728 7.68383 1 4.57939 -55.59 162.075
95 4.90728 7.68383 1 4.76373 -62.7865 -18.9078
